Frequency (Hz)	Level (dB)
86.132813	-48.222286
172.265625	-49.505367
258.398438	-54.669449
344.531250	-59.108574
430.664063	-61.746639
516.796875	-59.549961
602.929688	-58.299145
689.062500	-59.630119
775.195313	-61.487263
861.328125	-64.087166
947.460938	-67.841820
1033.593750	-74.332581
1119.726563	-72.093910
1205.859375	-65.410568
1291.992188	-60.123524
1378.125000	-55.074688
1464.257813	-52.835232
1550.390625	-56.128723
1636.523438	-60.800266
1722.656250	-65.089035
1808.789063	-66.983223
1894.921875	-67.823212
1981.054688	-65.021057
2067.187500	-64.386246
2153.320313	-65.738586
2239.453125	-69.296440
2325.585938	-72.763214
2411.718750	-62.088272
2497.851563	-59.484070
2583.984375	-64.552612
2670.117188	-66.528694
2756.250000	-65.005928
2842.382813	-64.990288
2928.515625	-65.815704
3014.648438	-67.884636
3100.781250	-69.225555
3186.914063	-71.327309
3273.046875	-71.322327
3359.179688	-65.322952
3445.312500	-64.421623
3531.445313	-67.286781
3617.578125	-67.758392
3703.710938	-61.723984
3789.843750	-59.881073
3875.976563	-60.638496
3962.109375	-65.317612
4048.242188	-64.419830
4134.375000	-63.485844
4220.507813	-64.862503
4306.640625	-67.032478
4392.773438	-73.460899
4478.906250	-77.259995
4565.039063	-65.264893
4651.171875	-58.647011
4737.304688	-55.915730
4823.437500	-55.177402
4909.570313	-55.967949
4995.703125	-61.005371
5081.835938	-67.343651
5167.968750	-70.956726
5254.101563	-74.301254
5340.234375	-76.490891
5426.367188	-80.094803
5512.500000	-78.379311
5598.632813	-73.656807
5684.765625	-69.948822
5770.898438	-69.717812
5857.031250	-72.865341
5943.164063	-78.132492
6029.296875	-81.566620
6115.429688	-81.357178
6201.562500	-75.303497
6287.695313	-71.429451
6373.828125	-71.127419
6459.960938	-75.382927
6546.093750	-80.739403
6632.226563	-79.905090
6718.359375	-79.232986
6804.492188	-85.896729
6890.625000	-78.500244
6976.757813	-72.004463
7062.890625	-70.353310
7149.023438	-73.259895
7235.156250	-80.453011
7321.289063	-75.679962
7407.421875	-68.207283
7493.554688	-64.862747
7579.687500	-65.353050
7665.820313	-68.461906
7751.953125	-73.198372
7838.085938	-73.091682
7924.218750	-69.689178
8010.351563	-69.593674
8096.484375	-72.670723
8182.617188	-75.121910
8268.750000	-75.444443
8354.882813	-78.057648
8441.015625	-83.303513
8527.148438	-86.609085
8613.281250	-89.315567
8699.414063	-93.612785
8785.546875	-91.899872
8871.679688	-86.404366
8957.812500	-84.714500
9043.945313	-86.419754
9130.078125	-90.788582
9216.210938	-89.708145
9302.343750	-85.688293
9388.476563	-84.075851
9474.609375	-84.084625
9560.742188	-87.195526
9646.875000	-87.654739
9733.007813	-86.735153
9819.140625	-86.798508
9905.273438	-82.740456
9991.406250	-79.569954
10077.539063	-79.865822
10163.671875	-80.014648
10249.804688	-78.645561
10335.937500	-79.115532
10422.070313	-80.755768
10508.203125	-82.787270
10594.335938	-86.480042
10680.468750	-94.789482
10766.601563	-94.342331
10852.734375	-90.033287
10938.867188	-88.174675
11025.000000	-87.558563
11111.132813	-87.889923
11197.265625	-88.387711
11283.398438	-89.678261
11369.531250	-92.029404
11455.664063	-92.974457
11541.796875	-91.861557
11627.929688	-92.487762
11714.062500	-98.002037
11800.195313	-106.762184
11886.328125	-105.484894
11972.460938	-98.511528
12058.593750	-95.698486
12144.726563	-94.812088
12230.859375	-95.006042
12316.992188	-97.579910
12403.125000	-98.538681
12489.257813	-95.906631
12575.390625	-101.051727
12661.523438	-97.020592
12747.656250	-91.687706
12833.789063	-89.404999
12919.921875	-88.170250
13006.054688	-86.500938
13092.187500	-85.639572
13178.320313	-86.083984
13264.453125	-86.520546
13350.585938	-87.630737
13436.718750	-90.038162
13522.851563	-92.016464
13608.984375	-93.133713
13695.117188	-94.408882
13781.250000	-95.599739
13867.382813	-96.265785
13953.515625	-96.431534
14039.648438	-97.049446
14125.781250	-99.719795
14211.914063	-106.091965
14298.046875	-103.558502
14384.179688	-99.225090
14470.312500	-95.067764
14556.445313	-93.520844
14642.578125	-95.175606
14728.710938	-97.051666
14814.843750	-96.430229
14900.976563	-91.996399
14987.109375	-87.563644
15073.242188	-86.287834
15159.375000	-88.150764
15245.507813	-93.573303
15331.640625	-96.719765
15417.773438	-92.542870
15503.906250	-90.255295
15590.039063	-89.899315
15676.171875	-91.158661
15762.304688	-94.120308
15848.437500	-98.951729
15934.570313	-96.472008
16020.703125	-93.640785
16106.835938	-94.938530
16192.968750	-98.665222
16279.101563	-101.323158
16365.234375	-101.407761
16451.367188	-98.126831
16537.500000	-98.841095
16623.632813	-99.024925
16709.765625	-96.334572
16795.898438	-97.341782
16882.031250	-98.750343
16968.164063	-94.266602
17054.296875	-91.712448
17140.429688	-91.278374
17226.562500	-91.451942
17312.695313	-92.779518
17398.828125	-95.651436
17484.960938	-99.540779
17571.093750	-103.684631
17657.226563	-103.824730
17743.359375	-105.422806
17829.492188	-101.964294
17915.625000	-100.454109
18001.757813	-99.447861
18087.890625	-96.392708
18174.023438	-93.632378
18260.156250	-93.700089
18346.289063	-96.358070
18432.421875	-101.370384
18518.554688	-110.058754
18604.687500	-110.448868
18690.820313	-106.906700
18776.953125	-106.020470
18863.085938	-106.103508
18949.218750	-107.859657
19035.351563	-108.376656
19121.484375	-107.754211
19207.617188	-108.676407
19293.750000	-110.987877
19379.882813	-115.917084
19466.015625	-118.164200
19552.148438	-114.775017
19638.281250	-116.554291
19724.414063	-112.241257
19810.546875	-108.894180
19896.679688	-109.234070
19982.812500	-113.099876
20068.945313	-118.175522
20155.078125	-113.284981
20241.210938	-114.804291
20327.343750	-121.548180
20413.476563	-121.605202
20499.609375	-121.093048
20585.742188	-125.062614
20671.875000	-129.692093
20758.007813	-129.643204
20844.140625	-125.802589
20930.273438	-123.429222
21016.406250	-125.215210
21102.539063	-131.061905
21188.671875	-132.264267
21274.804688	-131.844757
21360.937500	-135.629379
21447.070313	-136.404327
21533.203125	-136.356583
21619.335938	-140.204681
21705.468750	-145.758636
21791.601563	-140.691269
21877.734375	-140.382233
21963.867188	-144.625687
