Frequency (Hz)	Level (dB)
86.132813	-48.162548
172.265625	-50.377434
258.398438	-56.289246
344.531250	-59.146976
430.664063	-61.587170
516.796875	-61.136032
602.929688	-61.990837
689.062500	-62.607666
775.195313	-62.666740
861.328125	-65.430565
947.460938	-68.375671
1033.593750	-70.364311
1119.726563	-69.892540
1205.859375	-68.443649
1291.992188	-59.169884
1378.125000	-55.288002
1464.257813	-54.153038
1550.390625	-57.409241
1636.523438	-62.736622
1722.656250	-65.463501
1808.789063	-63.690670
1894.921875	-64.594978
1981.054688	-68.584724
2067.187500	-68.610947
2153.320313	-66.483376
2239.453125	-67.931038
2325.585938	-71.242279
2411.718750	-68.946609
2497.851563	-69.977005
2583.984375	-67.056496
2670.117188	-66.473900
2756.250000	-65.268341
2842.382813	-64.352463
2928.515625	-64.698509
3014.648438	-67.255341
3100.781250	-71.723656
3186.914063	-73.106682
3273.046875	-68.889046
3359.179688	-68.907372
3445.312500	-72.605736
3531.445313	-69.153122
3617.578125	-57.798267
3703.710938	-55.394291
3789.843750	-60.482635
3875.976563	-62.687347
3962.109375	-60.497086
4048.242188	-57.104725
4134.375000	-58.517727
4220.507813	-60.854416
4306.640625	-60.592937
4392.773438	-60.467369
4478.906250	-59.536777
4565.039063	-58.424187
4651.171875	-54.456306
4737.304688	-52.911404
4823.437500	-54.566372
4909.570313	-55.638046
4995.703125	-63.732445
5081.835938	-68.608170
5167.968750	-73.379921
5254.101563	-74.932457
5340.234375	-73.830986
5426.367188	-73.936203
5512.500000	-78.193771
5598.632813	-81.949669
5684.765625	-72.447304
5770.898438	-68.329041
5857.031250	-70.967636
5943.164063	-72.565659
6029.296875	-73.456253
6115.429688	-73.362587
6201.562500	-70.959351
6287.695313	-70.132507
6373.828125	-71.426109
6459.960938	-76.932884
6546.093750	-80.372681
6632.226563	-82.600243
6718.359375	-81.117966
6804.492188	-76.971405
6890.625000	-76.242592
6976.757813	-79.296783
7062.890625	-73.550941
7149.023438	-68.686745
7235.156250	-68.982834
7321.289063	-77.530373
7407.421875	-73.091682
7493.554688	-65.208420
7579.687500	-64.248268
7665.820313	-65.216110
7751.953125	-66.197166
7838.085938	-68.325851
7924.218750	-66.715118
8010.351563	-66.872589
8096.484375	-71.728088
8182.617188	-74.133064
8268.750000	-77.444588
8354.882813	-80.942024
8441.015625	-79.858299
8527.148438	-80.606522
8613.281250	-79.667336
8699.414063	-78.424316
8785.546875	-76.510963
8871.679688	-74.102997
8957.812500	-73.574005
9043.945313	-76.623436
9130.078125	-81.958557
9216.210938	-78.969398
9302.343750	-75.226120
9388.476563	-73.969376
9474.609375	-74.867638
9560.742188	-75.864815
9646.875000	-78.490837
9733.007813	-77.258698
9819.140625	-74.207771
9905.273438	-73.323853
9991.406250	-72.527977
10077.539063	-74.827232
10163.671875	-79.398186
10249.804688	-81.970993
10335.937500	-85.792778
10422.070313	-91.220459
10508.203125	-94.246368
10594.335938	-90.353683
10680.468750	-87.261940
10766.601563	-84.356873
10852.734375	-82.880264
10938.867188	-84.422592
11025.000000	-88.794540
11111.132813	-93.610977
11197.265625	-87.977798
11283.398438	-83.697762
11369.531250	-82.748787
11455.664063	-82.114372
11541.796875	-84.461800
11627.929688	-88.189117
11714.062500	-93.018066
11800.195313	-94.733826
11886.328125	-93.945778
11972.460938	-90.141876
12058.593750	-86.406685
12144.726563	-86.128349
12230.859375	-87.727119
12316.992188	-87.785950
12403.125000	-86.985725
12489.257813	-88.363617
12575.390625	-87.981781
12661.523438	-88.786354
12747.656250	-89.602898
12833.789063	-89.417793
12919.921875	-91.147247
13006.054688	-90.593353
13092.187500	-91.555435
13178.320313	-89.807701
13264.453125	-88.150055
13350.585938	-89.579514
13436.718750	-91.289925
13522.851563	-92.136246
13608.984375	-92.335449
13695.117188	-91.492935
13781.250000	-91.947937
13867.382813	-92.149704
13953.515625	-90.932564
14039.648438	-92.071075
14125.781250	-90.320175
14211.914063	-86.364586
14298.046875	-86.000671
14384.179688	-89.701988
14470.312500	-99.567841
14556.445313	-99.825714
14642.578125	-95.407120
14728.710938	-96.329201
14814.843750	-97.329391
14900.976563	-95.565674
14987.109375	-97.569168
15073.242188	-98.583954
15159.375000	-97.017120
15245.507813	-93.107025
15331.640625	-90.863083
15417.773438	-91.782639
15503.906250	-91.519623
15590.039063	-90.312553
15676.171875	-90.877205
15762.304688	-91.198250
15848.437500	-92.531609
15934.570313	-96.058411
16020.703125	-96.930893
16106.835938	-94.900780
16192.968750	-94.010620
16279.101563	-96.682106
16365.234375	-100.882645
16451.367188	-100.866646
16537.500000	-99.981384
16623.632813	-96.312836
16709.765625	-98.479187
16795.898438	-104.764862
16882.031250	-104.966881
16968.164063	-103.175949
17054.296875	-102.356270
17140.429688	-104.758911
17226.562500	-104.148911
17312.695313	-102.013374
17398.828125	-104.330086
17484.960938	-112.279755
17571.093750	-109.527359
17657.226563	-109.064835
17743.359375	-104.839813
17829.492188	-105.573868
17915.625000	-106.866158
18001.757813	-101.357414
18087.890625	-101.851227
18174.023438	-107.754425
18260.156250	-110.653557
18346.289063	-109.532425
18432.421875	-105.449043
18518.554688	-105.434166
18604.687500	-104.447845
18690.820313	-102.742783
18776.953125	-107.382729
18863.085938	-109.300102
18949.218750	-106.172958
19035.351563	-106.449272
19121.484375	-107.713509
19207.617188	-104.282921
19293.750000	-102.506050
19379.882813	-103.195068
19466.015625	-105.740891
19552.148438	-105.970421
19638.281250	-103.886299
19724.414063	-103.862625
19810.546875	-103.980362
19896.679688	-103.065811
19982.812500	-106.852127
20068.945313	-111.597992
20155.078125	-110.532845
20241.210938	-106.582390
20327.343750	-108.729698
20413.476563	-106.992874
20499.609375	-107.097435
20585.742188	-111.210777
20671.875000	-118.155258
20758.007813	-115.634506
20844.140625	-112.510162
20930.273438	-113.641129
21016.406250	-118.538620
21102.539063	-125.139809
21188.671875	-125.631302
21274.804688	-128.955185
21360.937500	-129.238113
21447.070313	-128.922684
21533.203125	-131.278290
21619.335938	-129.989334
21705.468750	-134.244156
21791.601563	-141.161743
21877.734375	-138.915085
21963.867188	-136.699799
