Frequency (Hz)	Level (dB)
86.132813	-57.178364
172.265625	-55.712460
258.398438	-57.771828
344.531250	-58.158482
430.664063	-56.614021
516.796875	-61.127468
602.929688	-62.461666
689.062500	-62.498703
775.195313	-59.997547
861.328125	-60.476322
947.460938	-64.500603
1033.593750	-65.307198
1119.726563	-63.058674
1205.859375	-61.606041
1291.992188	-63.798836
1378.125000	-60.210232
1464.257813	-51.302486
1550.390625	-49.983383
1636.523438	-54.321529
1722.656250	-64.020058
1808.789063	-58.090412
1894.921875	-61.168064
1981.054688	-42.852375
2067.187500	-39.386597
2153.320313	-46.286205
2239.453125	-60.616947
2325.585938	-68.689186
2411.718750	-65.590309
2497.851563	-58.889271
2583.984375	-58.079567
2670.117188	-62.540539
2756.250000	-58.992489
2842.382813	-58.852001
2928.515625	-62.645992
3014.648438	-66.586861
3100.781250	-63.772469
3186.914063	-59.651344
3273.046875	-56.105293
3359.179688	-56.570957
3445.312500	-53.985573
3531.445313	-54.622650
3617.578125	-57.560825
3703.710938	-61.153488
3789.843750	-64.243965
3875.976563	-60.898842
3962.109375	-51.961327
4048.242188	-47.447472
4134.375000	-47.620296
4220.507813	-49.744896
4306.640625	-51.526917
4392.773438	-54.153805
4478.906250	-59.933701
4565.039063	-53.123928
4651.171875	-54.559750
4737.304688	-56.955841
4823.437500	-57.512566
4909.570313	-61.984413
4995.703125	-61.584415
5081.835938	-63.686989
5167.968750	-62.228569
5254.101563	-62.127163
5340.234375	-62.258888
5426.367188	-58.679783
5512.500000	-62.541546
5598.632813	-68.681053
5684.765625	-62.836658
5770.898438	-60.599258
5857.031250	-59.644375
5943.164063	-51.178722
6029.296875	-53.765186
6115.429688	-61.271275
6201.562500	-59.462826
6287.695313	-60.443390
6373.828125	-67.126320
6459.960938	-70.861839
6546.093750	-71.889153
6632.226563	-80.076569
6718.359375	-79.100349
6804.492188	-80.295776
6890.625000	-86.211006
6976.757813	-83.422493
7062.890625	-81.064133
7149.023438	-83.164642
7235.156250	-74.835426
7321.289063	-66.420151
7407.421875	-63.424019
7493.554688	-62.857182
7579.687500	-62.438332
7665.820313	-65.179764
7751.953125	-64.547737
7838.085938	-58.316715
7924.218750	-54.013382
8010.351563	-54.443245
8096.484375	-59.400726
8182.617188	-65.544373
8268.750000	-66.904739
8354.882813	-65.718025
8441.015625	-68.264984
8527.148438	-68.451187
8613.281250	-66.123619
8699.414063	-68.047966
8785.546875	-73.056740
8871.679688	-71.578239
8957.812500	-74.175636
9043.945313	-78.972298
9130.078125	-81.561493
9216.210938	-71.164001
9302.343750	-66.309540
9388.476563	-65.482773
9474.609375	-70.655670
9560.742188	-75.697517
9646.875000	-70.339882
9733.007813	-70.687019
9819.140625	-76.882248
9905.273438	-83.206062
9991.406250	-85.503273
10077.539063	-82.724403
10163.671875	-75.932854
10249.804688	-72.954895
10335.937500	-71.962059
10422.070313	-70.900307
10508.203125	-68.039543
10594.335938	-65.517250
10680.468750	-65.456108
10766.601563	-69.077972
10852.734375	-71.702568
10938.867188	-68.624062
11025.000000	-68.399414
11111.132813	-70.212769
11197.265625	-75.059349
11283.398438	-82.790535
11369.531250	-81.714973
11455.664063	-84.467216
11541.796875	-84.719894
11627.929688	-81.647728
11714.062500	-83.913528
11800.195313	-79.868729
11886.328125	-81.214607
11972.460938	-76.650322
12058.593750	-71.127251
12144.726563	-70.495285
12230.859375	-73.494850
12316.992188	-79.743988
12403.125000	-79.711372
12489.257813	-77.151825
12575.390625	-78.879044
12661.523438	-88.002129
12747.656250	-83.633301
12833.789063	-84.335129
12919.921875	-88.996605
13006.054688	-84.841484
13092.187500	-82.140930
13178.320313	-83.106781
13264.453125	-86.506615
13350.585938	-87.717529
13436.718750	-87.910728
13522.851563	-88.115593
13608.984375	-87.847595
13695.117188	-87.231712
13781.250000	-87.882111
13867.382813	-91.820717
13953.515625	-90.780205
14039.648438	-85.880135
14125.781250	-85.375443
14211.914063	-85.227455
14298.046875	-85.354156
14384.179688	-88.985657
14470.312500	-89.167824
14556.445313	-86.701118
14642.578125	-89.139755
14728.710938	-89.566841
14814.843750	-84.491653
14900.976563	-82.640060
14987.109375	-86.595329
15073.242188	-84.001816
15159.375000	-78.664703
15245.507813	-78.267433
15331.640625	-79.534355
15417.773438	-80.579559
15503.906250	-81.043556
15590.039063	-80.657516
15676.171875	-80.815178
15762.304688	-85.430634
15848.437500	-95.182243
15934.570313	-90.984489
16020.703125	-90.452461
16106.835938	-93.181610
16192.968750	-96.730995
16279.101563	-86.144852
16365.234375	-83.024117
16451.367188	-84.847290
16537.500000	-86.939423
16623.632813	-87.972824
16709.765625	-89.272026
16795.898438	-88.126480
16882.031250	-87.052223
16968.164063	-87.609177
17054.296875	-87.252747
17140.429688	-85.035393
17226.562500	-85.452774
17312.695313	-87.468353
17398.828125	-86.224602
17484.960938	-86.734917
17571.093750	-91.725838
17657.226563	-94.099815
17743.359375	-91.515800
17829.492188	-91.638649
17915.625000	-88.914795
18001.757813	-84.026680
18087.890625	-82.341194
18174.023438	-84.458679
18260.156250	-87.807686
18346.289063	-88.441650
18432.421875	-84.123039
18518.554688	-82.484047
18604.687500	-82.901207
18690.820313	-82.763702
18776.953125	-83.126106
18863.085938	-87.410240
18949.218750	-95.739388
19035.351563	-94.245293
19121.484375	-96.169472
19207.617188	-95.733238
19293.750000	-94.155762
19379.882813	-92.882706
19466.015625	-91.898834
19552.148438	-91.742012
19638.281250	-93.650757
19724.414063	-95.723549
19810.546875	-97.936333
19896.679688	-99.028839
19982.812500	-102.967300
20068.945313	-104.928917
20155.078125	-105.326340
20241.210938	-106.783211
20327.343750	-107.248894
20413.476563	-110.892960
20499.609375	-116.955666
20585.742188	-116.052048
20671.875000	-117.950607
20758.007813	-114.591599
20844.140625	-115.511887
20930.273438	-112.035294
21016.406250	-110.398674
21102.539063	-116.912086
21188.671875	-118.698624
21274.804688	-114.244537
21360.937500	-115.360970
21447.070313	-120.176300
21533.203125	-127.564369
21619.335938	-130.505768
21705.468750	-126.161301
21791.601563	-129.825439
21877.734375	-137.647079
21963.867188	-135.380356
