Frequency (Hz)	Level (dB)
86.132813	-42.626152
172.265625	-45.790581
258.398438	-47.972218
344.531250	-50.203022
430.664063	-51.895512
516.796875	-53.068039
602.929688	-54.054855
689.062500	-55.376785
775.195313	-56.964134
861.328125	-58.179272
947.460938	-58.706940
1033.593750	-59.753479
1119.726563	-60.014561
1205.859375	-58.933575
1291.992188	-58.883400
1378.125000	-59.944321
1464.257813	-62.562160
1550.390625	-62.461765
1636.523438	-61.127445
1722.656250	-60.895123
1808.789063	-60.605324
1894.921875	-60.224979
1981.054688	-57.296551
2067.187500	-54.490700
2153.320313	-57.204029
2239.453125	-64.378677
2325.585938	-65.564034
2411.718750	-61.941051
2497.851563	-59.660927
2583.984375	-58.890789
2670.117188	-58.519371
2756.250000	-58.775169
2842.382813	-61.587574
2928.515625	-63.245216
3014.648438	-61.085167
3100.781250	-58.388557
3186.914063	-56.209660
3273.046875	-54.219055
3359.179688	-54.300514
3445.312500	-53.089725
3531.445313	-57.361687
3617.578125	-62.621506
3703.710938	-68.603447
3789.843750	-63.793804
3875.976563	-62.784584
3962.109375	-61.264664
4048.242188	-57.320374
4134.375000	-57.410450
4220.507813	-56.736984
4306.640625	-59.388309
4392.773438	-64.136215
4478.906250	-61.929699
4565.039063	-61.017849
4651.171875	-60.577225
4737.304688	-60.708328
4823.437500	-61.269970
4909.570313	-61.915966
4995.703125	-65.084335
5081.835938	-55.950447
5167.968750	-51.742752
5254.101563	-50.637035
5340.234375	-52.381943
5426.367188	-53.474171
5512.500000	-54.498508
5598.632813	-54.038860
5684.765625	-50.835876
5770.898438	-45.719166
5857.031250	-37.986385
5943.164063	-33.872631
6029.296875	-38.618919
6115.429688	-46.149483
6201.562500	-50.774517
6287.695313	-53.916214
6373.828125	-56.053242
6459.960938	-57.804779
6546.093750	-58.711430
6632.226563	-60.719906
6718.359375	-62.946720
6804.492188	-65.454765
6890.625000	-69.749290
6976.757813	-73.667130
7062.890625	-69.754509
7149.023438	-66.125298
7235.156250	-65.076660
7321.289063	-64.733521
7407.421875	-65.911774
7493.554688	-66.895149
7579.687500	-67.038200
7665.820313	-68.749939
7751.953125	-74.143135
7838.085938	-75.089706
7924.218750	-74.161751
8010.351563	-76.454163
8096.484375	-78.071205
8182.617188	-79.177353
8268.750000	-76.184906
8354.882813	-74.033226
8441.015625	-73.839424
8527.148438	-73.882278
8613.281250	-75.662643
8699.414063	-78.274704
8785.546875	-80.857635
8871.679688	-81.052513
8957.812500	-82.628120
9043.945313	-81.635162
9130.078125	-82.869568
9216.210938	-80.029533
9302.343750	-75.538483
9388.476563	-75.413788
9474.609375	-77.072578
9560.742188	-78.029839
9646.875000	-80.214195
9733.007813	-81.677391
9819.140625	-81.352928
9905.273438	-81.099510
9991.406250	-80.046829
10077.539063	-80.642906
10163.671875	-81.443626
10249.804688	-82.263298
10335.937500	-83.455605
10422.070313	-84.258072
10508.203125	-76.109825
10594.335938	-71.672707
10680.468750	-71.171074
10766.601563	-72.624626
10852.734375	-73.870132
10938.867188	-74.844299
11025.000000	-75.747566
11111.132813	-75.749985
11197.265625	-74.904785
11283.398438	-75.229591
11369.531250	-77.134560
11455.664063	-77.694138
11541.796875	-76.668732
11627.929688	-76.042885
11714.062500	-74.220268
11800.195313	-71.224342
11886.328125	-68.619041
11972.460938	-66.294464
12058.593750	-63.496826
12144.726563	-61.128323
12230.859375	-61.825886
12316.992188	-63.865978
12403.125000	-66.481300
12489.257813	-68.965492
12575.390625	-71.420998
12661.523438	-74.263115
12747.656250	-76.344604
12833.789063	-77.165161
12919.921875	-77.885002
13006.054688	-79.357674
13092.187500	-80.649063
13178.320313	-81.502846
13264.453125	-82.930992
13350.585938	-87.259750
13436.718750	-86.327393
13522.851563	-83.382874
13608.984375	-84.011574
13695.117188	-86.932137
13781.250000	-87.454285
13867.382813	-84.962074
13953.515625	-83.504456
14039.648438	-83.749298
14125.781250	-84.423119
14211.914063	-84.736458
14298.046875	-85.436539
14384.179688	-86.508614
14470.312500	-87.894287
14556.445313	-86.683319
14642.578125	-85.771942
14728.710938	-86.663452
14814.843750	-85.804184
14900.976563	-84.319054
14987.109375	-83.136177
15073.242188	-83.378296
15159.375000	-85.078827
15245.507813	-87.249245
15331.640625	-85.898872
15417.773438	-83.141731
15503.906250	-81.935852
15590.039063	-82.567085
15676.171875	-83.583473
15762.304688	-84.232704
15848.437500	-85.804276
15934.570313	-87.722710
16020.703125	-88.989891
16106.835938	-91.065216
16192.968750	-93.895393
16279.101563	-92.517174
16365.234375	-93.115891
16451.367188	-96.033607
16537.500000	-97.182968
16623.632813	-98.556885
16709.765625	-101.779938
16795.898438	-100.897163
16882.031250	-97.373535
16968.164063	-96.455490
17054.296875	-98.098701
17140.429688	-97.886696
17226.562500	-98.409195
17312.695313	-101.263336
17398.828125	-98.146439
17484.960938	-96.893738
17571.093750	-97.156151
17657.226563	-96.891708
17743.359375	-95.491135
17829.492188	-93.704491
17915.625000	-92.300179
18001.757813	-90.069534
18087.890625	-88.488487
18174.023438	-89.821938
18260.156250	-92.197121
18346.289063	-92.486420
18432.421875	-91.818451
18518.554688	-92.380371
18604.687500	-93.213516
18690.820313	-93.489799
18776.953125	-93.878639
18863.085938	-94.632362
18949.218750	-96.161293
19035.351563	-97.618713
19121.484375	-97.268272
19207.617188	-97.665924
19293.750000	-98.788948
19379.882813	-101.753899
19466.015625	-107.550797
19552.148438	-110.630203
19638.281250	-109.687332
19724.414063	-110.718994
19810.546875	-112.829796
19896.679688	-109.923561
19982.812500	-107.896027
20068.945313	-106.570068
20155.078125	-108.445366
20241.210938	-114.444016
20327.343750	-114.306702
20413.476563	-115.933289
20499.609375	-115.806396
20585.742188	-115.736961
20671.875000	-112.618500
20758.007813	-113.439941
20844.140625	-116.674850
20930.273438	-121.397614
21016.406250	-122.942856
21102.539063	-123.682220
21188.671875	-125.314751
21274.804688	-126.038315
21360.937500	-127.371498
21447.070313	-128.200821
21533.203125	-127.498528
21619.335938	-128.107910
21705.468750	-132.293701
21791.601563	-134.565475
21877.734375	-132.663849
21963.867188	-134.897385
