Frequency (Hz)	Level (dB)
86.132813	-41.819031
172.265625	-44.942028
258.398438	-46.883045
344.531250	-49.254837
430.664063	-50.911308
516.796875	-52.061119
602.929688	-53.145458
689.062500	-54.545952
775.195313	-56.222584
861.328125	-58.214348
947.460938	-60.448162
1033.593750	-61.659405
1119.726563	-60.101795
1205.859375	-58.738888
1291.992188	-59.111393
1378.125000	-59.616787
1464.257813	-56.635651
1550.390625	-56.251572
1636.523438	-60.559055
1722.656250	-63.221519
1808.789063	-58.790241
1894.921875	-58.031895
1981.054688	-52.154392
2067.187500	-47.787395
2153.320313	-52.828224
2239.453125	-59.819843
2325.585938	-67.784805
2411.718750	-66.406433
2497.851563	-61.646980
2583.984375	-60.054302
2670.117188	-59.338448
2756.250000	-57.382156
2842.382813	-62.206913
2928.515625	-61.482777
3014.648438	-61.519043
3100.781250	-69.322884
3186.914063	-69.909271
3273.046875	-61.540443
3359.179688	-53.692554
3445.312500	-47.764042
3531.445313	-50.004673
3617.578125	-54.092972
3703.710938	-57.402168
3789.843750	-60.239250
3875.976563	-65.286041
3962.109375	-57.379921
4048.242188	-52.275959
4134.375000	-53.704632
4220.507813	-56.979797
4306.640625	-63.076969
4392.773438	-63.739925
4478.906250	-61.368877
4565.039063	-60.142265
4651.171875	-62.256847
4737.304688	-63.650265
4823.437500	-62.376339
4909.570313	-62.431778
4995.703125	-61.272545
5081.835938	-57.467541
5167.968750	-58.903561
5254.101563	-64.029701
5340.234375	-59.807735
5426.367188	-52.089100
5512.500000	-51.713840
5598.632813	-52.478970
5684.765625	-51.032738
5770.898438	-47.719341
5857.031250	-42.623375
5943.164063	-38.956280
6029.296875	-44.054745
6115.429688	-52.985676
6201.562500	-59.581448
6287.695313	-62.906357
6373.828125	-64.519783
6459.960938	-65.496536
6546.093750	-66.284569
6632.226563	-69.063644
6718.359375	-73.217522
6804.492188	-72.827339
6890.625000	-71.142700
6976.757813	-72.053528
7062.890625	-75.352760
7149.023438	-78.279343
7235.156250	-75.500641
7321.289063	-65.815254
7407.421875	-61.053528
7493.554688	-57.436401
7579.687500	-53.016708
7665.820313	-53.118050
7751.953125	-57.038708
7838.085938	-58.763744
7924.218750	-58.458679
8010.351563	-59.009190
8096.484375	-61.110165
8182.617188	-64.229523
8268.750000	-66.124420
8354.882813	-67.640503
8441.015625	-70.602715
8527.148438	-74.434219
8613.281250	-73.424995
8699.414063	-70.647453
8785.546875	-67.261444
8871.679688	-62.631542
8957.812500	-60.499439
9043.945313	-61.086048
9130.078125	-62.013756
9216.210938	-62.531937
9302.343750	-63.004280
9388.476563	-65.184486
9474.609375	-70.028786
9560.742188	-72.750511
9646.875000	-73.504791
9733.007813	-76.428696
9819.140625	-80.614914
9905.273438	-81.754768
9991.406250	-81.394753
10077.539063	-81.832336
10163.671875	-83.314560
10249.804688	-87.039886
10335.937500	-80.518112
10422.070313	-72.480637
10508.203125	-69.140572
10594.335938	-68.678909
10680.468750	-71.027695
10766.601563	-77.419640
10852.734375	-80.977043
10938.867188	-79.361732
11025.000000	-79.521889
11111.132813	-80.550468
11197.265625	-79.222290
11283.398438	-77.160767
11369.531250	-76.549072
11455.664063	-76.059090
11541.796875	-75.575584
11627.929688	-75.365280
11714.062500	-74.593193
11800.195313	-73.073067
11886.328125	-71.632614
11972.460938	-68.632629
12058.593750	-64.564011
12144.726563	-62.368450
12230.859375	-64.831299
12316.992188	-69.847725
12403.125000	-74.198647
12489.257813	-76.129852
12575.390625	-76.499214
12661.523438	-75.996277
12747.656250	-76.299599
12833.789063	-77.701286
12919.921875	-79.298683
13006.054688	-81.471062
13092.187500	-84.233086
13178.320313	-86.394638
13264.453125	-86.115326
13350.585938	-84.799271
13436.718750	-84.716881
13522.851563	-85.445503
13608.984375	-85.022346
13695.117188	-83.721756
13781.250000	-83.386345
13867.382813	-83.567673
13953.515625	-81.858505
14039.648438	-79.277809
14125.781250	-77.305847
14211.914063	-75.532326
14298.046875	-73.566086
14384.179688	-72.643448
14470.312500	-73.274307
14556.445313	-74.869392
14642.578125	-77.069611
14728.710938	-77.676201
14814.843750	-76.173027
14900.976563	-75.744514
14987.109375	-77.139969
15073.242188	-79.626045
15159.375000	-81.063461
15245.507813	-81.920219
15331.640625	-81.759338
15417.773438	-80.069069
15503.906250	-78.198753
15590.039063	-77.043221
15676.171875	-76.837051
15762.304688	-76.746437
15848.437500	-76.178200
15934.570313	-75.452309
16020.703125	-75.428871
16106.835938	-76.181206
16192.968750	-77.257423
16279.101563	-78.043297
16365.234375	-78.432831
16451.367188	-78.734528
16537.500000	-79.282486
16623.632813	-80.341682
16709.765625	-81.923439
16795.898438	-83.029404
16882.031250	-82.415108
16968.164063	-81.422043
17054.296875	-81.046669
17140.429688	-80.495560
17226.562500	-79.824715
17312.695313	-79.658752
17398.828125	-79.367851
17484.960938	-78.280342
17571.093750	-77.126152
17657.226563	-76.716942
17743.359375	-77.068634
17829.492188	-77.206757
17915.625000	-75.479813
18001.757813	-72.931396
18087.890625	-71.661247
18174.023438	-72.925034
18260.156250	-76.182808
18346.289063	-79.658554
18432.421875	-81.609833
18518.554688	-82.473122
18604.687500	-82.952217
18690.820313	-83.336800
18776.953125	-84.480202
18863.085938	-86.545547
18949.218750	-87.908386
19035.351563	-87.276413
19121.484375	-86.711540
19207.617188	-87.045616
19293.750000	-88.338943
19379.882813	-90.588539
19466.015625	-93.563950
19552.148438	-96.765831
19638.281250	-99.169807
19724.414063	-101.066330
19810.546875	-103.000534
19896.679688	-103.080528
19982.812500	-101.537674
20068.945313	-100.271156
20155.078125	-99.614662
20241.210938	-99.258392
20327.343750	-99.629158
20413.476563	-100.992432
20499.609375	-103.468239
20585.742188	-106.951660
20671.875000	-113.390915
20758.007813	-116.173691
20844.140625	-112.704575
20930.273438	-109.122810
21016.406250	-107.613869
21102.539063	-108.469139
21188.671875	-110.180870
21274.804688	-111.732903
21360.937500	-113.734062
21447.070313	-117.506500
21533.203125	-123.400848
21619.335938	-134.574814
21705.468750	-131.499359
21791.601563	-130.130478
21877.734375	-132.850616
21963.867188	-136.466370
