Frequency (Hz)	Level (dB)
86.132813	-43.522953
172.265625	-45.929585
258.398438	-48.338680
344.531250	-50.828228
430.664063	-51.987244
516.796875	-52.723637
602.929688	-53.857269
689.062500	-55.320545
775.195313	-56.526089
861.328125	-58.479595
947.460938	-62.845497
1033.593750	-65.512344
1119.726563	-60.426357
1205.859375	-58.451427
1291.992188	-59.878170
1378.125000	-56.589279
1464.257813	-49.634876
1550.390625	-50.349525
1636.523438	-58.131340
1722.656250	-67.222862
1808.789063	-59.457973
1894.921875	-58.542118
1981.054688	-53.987541
2067.187500	-50.159527
2153.320313	-53.957062
2239.453125	-58.104256
2325.585938	-63.050655
2411.718750	-59.457161
2497.851563	-58.419479
2583.984375	-57.669144
2670.117188	-57.554665
2756.250000	-54.901920
2842.382813	-58.147896
2928.515625	-55.747673
3014.648438	-57.168064
3100.781250	-65.031555
3186.914063	-68.069931
3273.046875	-61.399181
3359.179688	-55.326416
3445.312500	-50.724697
3531.445313	-52.396729
3617.578125	-57.058567
3703.710938	-63.102200
3789.843750	-69.746078
3875.976563	-63.386051
3962.109375	-51.265450
4048.242188	-47.304886
4134.375000	-49.344353
4220.507813	-54.269299
4306.640625	-68.439995
4392.773438	-60.275074
4478.906250	-56.989532
4565.039063	-56.219753
4651.171875	-60.017895
4737.304688	-64.990601
4823.437500	-63.354485
4909.570313	-64.208549
4995.703125	-60.802250
5081.835938	-54.657307
5167.968750	-54.984001
5254.101563	-58.667000
5340.234375	-57.160919
5426.367188	-50.215702
5512.500000	-49.479523
5598.632813	-51.076065
5684.765625	-49.774990
5770.898438	-45.472115
5857.031250	-41.158909
5943.164063	-38.639202
6029.296875	-43.222870
6115.429688	-52.582710
6201.562500	-60.631760
6287.695313	-63.760700
6373.828125	-65.975677
6459.960938	-68.733932
6546.093750	-74.793190
6632.226563	-82.375404
6718.359375	-84.019417
6804.492188	-80.521301
6890.625000	-77.794197
6976.757813	-76.835495
7062.890625	-76.290726
7149.023438	-75.739258
7235.156250	-74.146164
7321.289063	-68.228279
7407.421875	-63.196999
7493.554688	-60.477116
7579.687500	-57.774139
7665.820313	-58.172878
7751.953125	-62.010761
7838.085938	-61.995522
7924.218750	-60.878517
8010.351563	-61.593891
8096.484375	-63.717678
8182.617188	-66.979301
8268.750000	-68.524345
8354.882813	-69.190186
8441.015625	-71.474754
8527.148438	-74.034317
8613.281250	-77.962082
8699.414063	-76.987671
8785.546875	-70.290886
8871.679688	-63.581047
8957.812500	-61.043041
9043.945313	-61.646786
9130.078125	-62.900406
9216.210938	-63.279793
9302.343750	-64.607346
9388.476563	-68.217117
9474.609375	-72.712959
9560.742188	-73.136917
9646.875000	-75.130554
9733.007813	-79.333061
9819.140625	-81.685684
9905.273438	-82.825569
9991.406250	-82.250053
10077.539063	-82.386505
10163.671875	-82.323738
10249.804688	-82.578209
10335.937500	-85.045723
10422.070313	-75.769981
10508.203125	-71.883926
10594.335938	-72.105667
10680.468750	-75.588890
10766.601563	-82.953011
10852.734375	-86.848450
10938.867188	-84.306725
11025.000000	-80.943924
11111.132813	-80.229248
11197.265625	-80.280075
11283.398438	-81.184372
11369.531250	-85.081314
11455.664063	-85.535637
11541.796875	-81.546181
11627.929688	-80.827087
11714.062500	-80.102211
11800.195313	-77.119316
11886.328125	-74.642189
11972.460938	-71.575211
12058.593750	-66.749847
12144.726563	-64.448906
12230.859375	-66.630615
12316.992188	-71.900620
12403.125000	-76.131432
12489.257813	-78.460243
12575.390625	-79.471260
12661.523438	-79.555023
12747.656250	-80.089912
12833.789063	-80.819321
12919.921875	-82.267639
13006.054688	-84.982239
13092.187500	-86.450386
13178.320313	-85.829559
13264.453125	-86.369804
13350.585938	-87.729401
13436.718750	-88.419930
13522.851563	-89.224220
13608.984375	-90.284882
13695.117188	-89.448265
13781.250000	-87.291977
13867.382813	-85.502029
13953.515625	-84.541779
14039.648438	-84.091995
14125.781250	-84.059273
14211.914063	-81.231903
14298.046875	-78.051323
14384.179688	-77.247978
14470.312500	-78.639420
14556.445313	-81.475517
14642.578125	-83.865349
14728.710938	-84.574951
14814.843750	-84.356567
14900.976563	-84.787056
14987.109375	-87.115257
15073.242188	-84.872398
15159.375000	-82.689713
15245.507813	-83.817017
15331.640625	-87.243996
15417.773438	-88.439758
15503.906250	-86.175407
15590.039063	-84.619087
15676.171875	-84.955299
15762.304688	-85.170265
15848.437500	-83.759598
15934.570313	-82.577019
16020.703125	-82.109497
16106.835938	-82.487854
16192.968750	-83.337097
16279.101563	-83.000282
16365.234375	-82.587074
16451.367188	-83.448357
16537.500000	-85.050850
16623.632813	-87.052223
16709.765625	-88.630585
16795.898438	-88.450935
16882.031250	-86.830086
16968.164063	-85.741051
17054.296875	-85.775490
17140.429688	-86.362732
17226.562500	-86.094505
17312.695313	-84.893585
17398.828125	-84.195602
17484.960938	-84.037674
17571.093750	-83.766350
17657.226563	-83.331543
17743.359375	-82.409645
17829.492188	-81.143791
17915.625000	-79.349861
18001.757813	-77.092339
18087.890625	-76.351372
18174.023438	-78.466057
18260.156250	-83.324432
18346.289063	-88.616661
18432.421875	-90.819687
18518.554688	-90.815331
18604.687500	-91.904099
18690.820313	-93.384575
18776.953125	-94.879791
18863.085938	-98.786201
18949.218750	-103.413574
19035.351563	-102.741844
19121.484375	-100.729370
19207.617188	-97.702652
19293.750000	-96.099670
19379.882813	-96.692963
19466.015625	-99.847725
19552.148438	-101.830017
19638.281250	-100.198723
19724.414063	-100.302727
19810.546875	-103.416222
19896.679688	-106.509705
19982.812500	-105.092140
20068.945313	-104.556557
20155.078125	-105.134056
20241.210938	-105.635918
20327.343750	-106.266434
20413.476563	-107.771797
20499.609375	-112.573364
20585.742188	-123.134575
20671.875000	-117.271187
20758.007813	-117.739525
20844.140625	-122.743965
20930.273438	-127.017059
21016.406250	-127.994598
21102.539063	-118.796577
21188.671875	-117.424263
21274.804688	-119.715500
21360.937500	-121.998940
21447.070313	-126.799393
21533.203125	-134.900787
21619.335938	-131.317856
21705.468750	-135.791031
21791.601563	-141.189194
21877.734375	-134.209641
21963.867188	-134.710922
