Frequency (Hz)	Level (dB)
86.132813	-51.606960
172.265625	-58.407459
258.398438	-58.707596
344.531250	-59.378731
430.664063	-54.455582
516.796875	-55.507900
602.929688	-60.407673
689.062500	-61.155872
775.195313	-62.089798
861.328125	-65.163254
947.460938	-56.640305
1033.593750	-58.604565
1119.726563	-66.154999
1205.859375	-62.871155
1291.992188	-59.035995
1378.125000	-59.511341
1464.257813	-60.003281
1550.390625	-60.534698
1636.523438	-57.599216
1722.656250	-57.805546
1808.789063	-62.317722
1894.921875	-64.133728
1981.054688	-57.875801
2067.187500	-54.424961
2153.320313	-56.726543
2239.453125	-57.968449
2325.585938	-60.046467
2411.718750	-60.244076
2497.851563	-63.810879
2583.984375	-65.497292
2670.117188	-62.613441
2756.250000	-63.002090
2842.382813	-67.189842
2928.515625	-70.432823
3014.648438	-69.087830
3100.781250	-65.213486
3186.914063	-61.388351
3273.046875	-58.194004
3359.179688	-59.381382
3445.312500	-60.549328
3531.445313	-58.528961
3617.578125	-59.407036
3703.710938	-66.321457
3789.843750	-72.464569
3875.976563	-61.976837
3962.109375	-53.583736
4048.242188	-49.123032
4134.375000	-48.440044
4220.507813	-48.950577
4306.640625	-50.415321
4392.773438	-53.879589
4478.906250	-58.427879
4565.039063	-64.795410
4651.171875	-64.751122
4737.304688	-67.694695
4823.437500	-74.885643
4909.570313	-73.592964
4995.703125	-70.534775
5081.835938	-64.623238
5167.968750	-59.725594
5254.101563	-57.779129
5340.234375	-57.559986
5426.367188	-58.208748
5512.500000	-60.177601
5598.632813	-62.627052
5684.765625	-64.340858
5770.898438	-73.373718
5857.031250	-54.289772
5943.164063	-49.995647
6029.296875	-53.983593
6115.429688	-62.489178
6201.562500	-69.099747
6287.695313	-78.290863
6373.828125	-76.162605
6459.960938	-70.044868
6546.093750	-70.516426
6632.226563	-74.749062
6718.359375	-80.433868
6804.492188	-80.080025
6890.625000	-73.823433
6976.757813	-71.316856
7062.890625	-71.494385
7149.023438	-71.068680
7235.156250	-68.883339
7321.289063	-67.715668
7407.421875	-68.607994
7493.554688	-68.420563
7579.687500	-62.033981
7665.820313	-58.946457
7751.953125	-59.844097
7838.085938	-62.589764
7924.218750	-59.953129
8010.351563	-60.008492
8096.484375	-67.426125
8182.617188	-72.994026
8268.750000	-65.692978
8354.882813	-65.280418
8441.015625	-65.733749
8527.148438	-70.542221
8613.281250	-80.686234
8699.414063	-74.063751
8785.546875	-77.164742
8871.679688	-77.331284
8957.812500	-78.804863
9043.945313	-81.207710
9130.078125	-74.048759
9216.210938	-70.985634
9302.343750	-67.321159
9388.476563	-66.514359
9474.609375	-71.263779
9560.742188	-71.836922
9646.875000	-70.124161
9733.007813	-72.894905
9819.140625	-74.297012
9905.273438	-76.080399
9991.406250	-77.241806
10077.539063	-75.622658
10163.671875	-72.096291
10249.804688	-67.279991
10335.937500	-65.111313
10422.070313	-63.773758
10508.203125	-62.281158
10594.335938	-61.093102
10680.468750	-61.227489
10766.601563	-63.631897
10852.734375	-67.095779
10938.867188	-70.992943
11025.000000	-78.843117
11111.132813	-78.277161
11197.265625	-74.422989
11283.398438	-72.938461
11369.531250	-72.590355
11455.664063	-74.178833
11541.796875	-76.480835
11627.929688	-76.084518
11714.062500	-74.296883
11800.195313	-73.311867
11886.328125	-70.275780
11972.460938	-68.829796
12058.593750	-69.572922
12144.726563	-67.373322
12230.859375	-65.994720
12316.992188	-68.307320
12403.125000	-73.925735
12489.257813	-79.290779
12575.390625	-78.903336
12661.523438	-77.963593
12747.656250	-78.030960
12833.789063	-76.588516
12919.921875	-77.318398
13006.054688	-77.898819
13092.187500	-79.107452
13178.320313	-85.243431
13264.453125	-85.370041
13350.585938	-77.598717
13436.718750	-74.576729
13522.851563	-75.792816
13608.984375	-79.109085
13695.117188	-75.424217
13781.250000	-73.650002
13867.382813	-76.023613
13953.515625	-82.101891
14039.648438	-86.793594
14125.781250	-88.854111
14211.914063	-88.491844
14298.046875	-81.728058
14384.179688	-79.296028
14470.312500	-84.461861
14556.445313	-87.434189
14642.578125	-82.632774
14728.710938	-81.492058
14814.843750	-82.230820
14900.976563	-91.151840
14987.109375	-87.137436
15073.242188	-82.778023
15159.375000	-79.095146
15245.507813	-76.861397
15331.640625	-76.939545
15417.773438	-76.889465
15503.906250	-75.135452
15590.039063	-75.354439
15676.171875	-78.187981
15762.304688	-80.657791
15848.437500	-76.666801
15934.570313	-74.025810
16020.703125	-74.335648
16106.835938	-78.942459
16192.968750	-89.110947
16279.101563	-86.497238
16365.234375	-83.605087
16451.367188	-82.275917
16537.500000	-82.764160
16623.632813	-82.503433
16709.765625	-84.621872
16795.898438	-91.543053
16882.031250	-93.634789
16968.164063	-92.470810
17054.296875	-91.249268
17140.429688	-90.036491
17226.562500	-91.271301
17312.695313	-93.074379
17398.828125	-96.545029
17484.960938	-97.489555
17571.093750	-86.397568
17657.226563	-83.115005
17743.359375	-86.044312
17829.492188	-95.422531
17915.625000	-91.242470
18001.757813	-83.003387
18087.890625	-78.677612
18174.023438	-78.671249
18260.156250	-80.139793
18346.289063	-81.679504
18432.421875	-83.263481
18518.554688	-85.506180
18604.687500	-88.953651
18690.820313	-87.204727
18776.953125	-87.432732
18863.085938	-88.520432
18949.218750	-88.922523
19035.351563	-89.159683
19121.484375	-89.464699
19207.617188	-90.725296
19293.750000	-91.524406
19379.882813	-92.576904
19466.015625	-94.573158
19552.148438	-98.339767
19638.281250	-101.296135
19724.414063	-101.621170
19810.546875	-101.825111
19896.679688	-106.162262
19982.812500	-102.919655
20068.945313	-99.199829
20155.078125	-102.308655
20241.210938	-108.610115
20327.343750	-108.930878
20413.476563	-116.288506
20499.609375	-121.680634
20585.742188	-118.741470
20671.875000	-114.645607
20758.007813	-112.254509
20844.140625	-115.524353
20930.273438	-119.157806
21016.406250	-120.777641
21102.539063	-123.458961
21188.671875	-129.032440
21274.804688	-133.414948
21360.937500	-128.376251
21447.070313	-129.553223
21533.203125	-134.371094
21619.335938	-141.889633
21705.468750	-140.849197
21791.601563	-136.786560
21877.734375	-137.656876
21963.867188	-143.100845
