Frequency (Hz)	Level (dB)
86.132813	-65.600426
172.265625	-63.647541
258.398438	-65.829521
344.531250	-70.815918
430.664063	-70.453033
516.796875	-70.293068
602.929688	-71.417046
689.062500	-72.513794
775.195313	-73.673347
861.328125	-75.060417
947.460938	-74.340927
1033.593750	-70.820175
1119.726563	-68.162827
1205.859375	-67.267212
1291.992188	-67.394157
1378.125000	-67.877518
1464.257813	-69.549095
1550.390625	-74.982330
1636.523438	-81.584335
1722.656250	-73.159775
1808.789063	-71.070038
1894.921875	-69.945137
1981.054688	-67.604454
2067.187500	-65.340599
2153.320313	-64.545982
2239.453125	-65.977379
2325.585938	-69.562195
2411.718750	-73.552513
2497.851563	-75.112114
2583.984375	-71.396584
2670.117188	-67.418221
2756.250000	-64.909286
2842.382813	-64.589752
2928.515625	-67.968460
3014.648438	-74.215714
3100.781250	-79.781136
3186.914063	-88.641418
3273.046875	-86.061607
3359.179688	-79.802330
3445.312500	-72.603447
3531.445313	-72.850868
3617.578125	-77.281006
3703.710938	-73.879654
3789.843750	-69.424706
3875.976563	-68.314240
3962.109375	-72.423477
4048.242188	-79.998703
4134.375000	-73.592690
4220.507813	-67.970695
4306.640625	-66.580238
4392.773438	-70.328018
4478.906250	-77.410782
4565.039063	-70.267052
4651.171875	-69.351730
4737.304688	-69.529274
4823.437500	-66.634506
4909.570313	-63.026047
4995.703125	-58.199364
5081.835938	-57.402584
5167.968750	-61.208317
5254.101563	-62.541126
5340.234375	-64.285316
5426.367188	-66.968590
5512.500000	-71.893707
5598.632813	-80.324188
5684.765625	-69.282578
5770.898438	-67.594032
5857.031250	-72.115402
5943.164063	-79.463257
6029.296875	-70.913742
6115.429688	-68.994659
6201.562500	-71.609695
6287.695313	-75.247879
6373.828125	-77.656853
6459.960938	-76.210533
6546.093750	-76.213799
6632.226563	-76.924438
6718.359375	-77.522156
6804.492188	-79.576935
6890.625000	-83.104141
6976.757813	-84.940147
7062.890625	-84.165054
7149.023438	-83.205589
7235.156250	-82.947029
7321.289063	-83.753654
7407.421875	-86.499542
7493.554688	-91.800278
7579.687500	-87.979858
7665.820313	-87.878792
7751.953125	-87.193596
7838.085938	-84.728348
7924.218750	-83.045738
8010.351563	-79.516914
8096.484375	-77.333984
8182.617188	-76.389740
8268.750000	-78.355614
8354.882813	-84.032555
8441.015625	-92.553879
8527.148438	-92.555534
8613.281250	-91.550209
8699.414063	-93.528053
8785.546875	-93.197021
8871.679688	-90.174004
8957.812500	-88.689140
9043.945313	-91.562889
9130.078125	-92.211021
9216.210938	-91.383308
9302.343750	-87.500198
9388.476563	-81.857376
9474.609375	-80.303795
9560.742188	-83.784393
9646.875000	-91.635963
9733.007813	-85.388313
9819.140625	-80.012535
9905.273438	-79.186554
9991.406250	-82.034981
10077.539063	-84.327148
10163.671875	-82.084503
10249.804688	-77.927483
10335.937500	-75.935448
10422.070313	-76.795853
10508.203125	-76.877228
10594.335938	-73.205299
10680.468750	-70.396973
10766.601563	-71.314575
10852.734375	-75.782265
10938.867188	-80.137589
11025.000000	-82.392006
11111.132813	-82.802483
11197.265625	-84.785957
11283.398438	-83.824287
11369.531250	-81.748825
11455.664063	-82.855316
11541.796875	-84.798195
11627.929688	-86.136147
11714.062500	-86.102951
11800.195313	-82.771843
11886.328125	-80.033585
11972.460938	-80.819176
12058.593750	-85.198112
12144.726563	-92.952255
12230.859375	-94.641357
12316.992188	-92.063759
12403.125000	-93.115013
12489.257813	-96.263176
12575.390625	-100.363693
12661.523438	-102.664780
12747.656250	-97.319824
12833.789063	-94.290909
12919.921875	-93.541222
13006.054688	-95.169418
13092.187500	-97.667969
13178.320313	-97.922775
13264.453125	-97.484772
13350.585938	-94.859993
13436.718750	-92.737587
13522.851563	-92.414726
13608.984375	-93.456779
13695.117188	-95.738907
13781.250000	-99.145180
13867.382813	-102.589798
13953.515625	-103.190704
14039.648438	-99.492828
14125.781250	-99.201881
14211.914063	-100.374695
14298.046875	-99.852440
14384.179688	-105.708611
14470.312500	-97.516930
14556.445313	-93.998985
14642.578125	-92.170357
14728.710938	-92.112343
14814.843750	-94.838676
14900.976563	-99.263962
14987.109375	-101.424744
15073.242188	-96.708923
15159.375000	-96.246292
15245.507813	-95.214439
15331.640625	-94.449905
15417.773438	-92.190536
15503.906250	-91.530365
15590.039063	-91.344193
15676.171875	-89.663513
15762.304688	-88.865318
15848.437500	-91.136841
15934.570313	-97.168747
16020.703125	-103.133484
16106.835938	-104.337082
16192.968750	-111.729485
16279.101563	-105.366638
16365.234375	-101.910233
16451.367188	-102.908760
16537.500000	-105.208633
16623.632813	-106.518684
16709.765625	-105.389809
16795.898438	-104.039635
16882.031250	-102.746658
16968.164063	-101.290207
17054.296875	-101.961472
17140.429688	-104.758904
17226.562500	-109.170593
17312.695313	-115.543350
17398.828125	-114.398232
17484.960938	-114.748604
17571.093750	-116.512489
17657.226563	-114.660179
17743.359375	-115.551353
17829.492188	-113.631485
17915.625000	-108.726906
18001.757813	-107.226334
18087.890625	-107.116310
18174.023438	-107.746414
18260.156250	-110.952423
18346.289063	-114.293785
18432.421875	-116.568489
18518.554688	-121.398384
18604.687500	-117.533768
18690.820313	-116.371078
18776.953125	-114.898254
18863.085938	-114.807823
18949.218750	-115.265182
19035.351563	-113.087555
19121.484375	-114.220718
19207.617188	-116.033554
19293.750000	-114.334709
19379.882813	-113.892052
19466.015625	-114.187202
19552.148438	-115.837952
19638.281250	-118.246490
19724.414063	-122.046112
19810.546875	-123.439026
19896.679688	-124.534332
19982.812500	-126.623589
20068.945313	-125.468834
20155.078125	-126.677078
20241.210938	-130.436584
20327.343750	-131.435745
20413.476563	-130.281326
20499.609375	-129.650696
20585.742188	-127.074615
20671.875000	-126.796791
20758.007813	-126.897469
20844.140625	-128.075623
20930.273438	-131.974060
21016.406250	-134.213211
21102.539063	-135.152802
21188.671875	-138.692307
21274.804688	-144.198288
21360.937500	-149.028732
21447.070313	-149.488632
21533.203125	-149.593567
21619.335938	-150.334747
21705.468750	-149.614243
21791.601563	-150.265213
21877.734375	-153.326111
21963.867188	-156.961838
