Frequency (Hz)	Level (dB)
86.132813	-56.343216
172.265625	-59.860157
258.398438	-62.727139
344.531250	-62.655006
430.664063	-59.231739
516.796875	-61.853134
602.929688	-64.518761
689.062500	-64.058479
775.195313	-57.364174
861.328125	-51.904682
947.460938	-53.473942
1033.593750	-59.726391
1119.726563	-54.125496
1205.859375	-47.714615
1291.992188	-43.533493
1378.125000	-43.035099
1464.257813	-45.699921
1550.390625	-49.715866
1636.523438	-56.567513
1722.656250	-53.323158
1808.789063	-46.682812
1894.921875	-45.472301
1981.054688	-46.527092
2067.187500	-47.204800
2153.320313	-52.249653
2239.453125	-60.425220
2325.585938	-46.414341
2411.718750	-39.142506
2497.851563	-38.814480
2583.984375	-46.024883
2670.117188	-56.002258
2756.250000	-60.633965
2842.382813	-55.683346
2928.515625	-49.247665
3014.648438	-43.901882
3100.781250	-39.628101
3186.914063	-40.093491
3273.046875	-45.819824
3359.179688	-51.322254
3445.312500	-55.002708
3531.445313	-54.087791
3617.578125	-54.161697
3703.710938	-53.645893
3789.843750	-51.748371
3875.976563	-54.166653
3962.109375	-57.382114
4048.242188	-56.276882
4134.375000	-58.056293
4220.507813	-60.971798
4306.640625	-61.065308
4392.773438	-60.793907
4478.906250	-50.802395
4565.039063	-46.011097
4651.171875	-47.599659
4737.304688	-53.151657
4823.437500	-58.347736
4909.570313	-63.851448
4995.703125	-61.149349
5081.835938	-60.297169
5167.968750	-62.997139
5254.101563	-60.501484
5340.234375	-57.636250
5426.367188	-57.666359
5512.500000	-63.078213
5598.632813	-64.752037
5684.765625	-59.506531
5770.898438	-55.365810
5857.031250	-55.968124
5943.164063	-61.632481
6029.296875	-72.227539
6115.429688	-70.072464
6201.562500	-68.455193
6287.695313	-65.529480
6373.828125	-65.596657
6459.960938	-68.738197
6546.093750	-71.244957
6632.226563	-70.096329
6718.359375	-71.453468
6804.492188	-77.429184
6890.625000	-78.507927
6976.757813	-80.298790
7062.890625	-79.143463
7149.023438	-68.005730
7235.156250	-63.501225
7321.289063	-66.152855
7407.421875	-75.393234
7493.554688	-65.202774
7579.687500	-63.984749
7665.820313	-67.762993
7751.953125	-68.006851
7838.085938	-66.442719
7924.218750	-67.197281
8010.351563	-70.975075
8096.484375	-75.652725
8182.617188	-73.935234
8268.750000	-73.233521
8354.882813	-79.490448
8441.015625	-77.918686
8527.148438	-80.233223
8613.281250	-79.770668
8699.414063	-74.283600
8785.546875	-73.010002
8871.679688	-73.698471
8957.812500	-75.069687
9043.945313	-77.422340
9130.078125	-78.458572
9216.210938	-77.134232
9302.343750	-77.808846
9388.476563	-82.113426
9474.609375	-82.830307
9560.742188	-81.293816
9646.875000	-83.890182
9733.007813	-90.730873
9819.140625	-85.897766
9905.273438	-79.913895
9991.406250	-76.873886
10077.539063	-74.745918
10163.671875	-75.258354
10249.804688	-78.380875
10335.937500	-83.127975
10422.070313	-92.123802
10508.203125	-95.505791
10594.335938	-91.969109
10680.468750	-87.894775
10766.601563	-83.023422
10852.734375	-81.938698
10938.867188	-86.363953
11025.000000	-83.492798
11111.132813	-80.968102
11197.265625	-80.238495
11283.398438	-78.260986
11369.531250	-76.301918
11455.664063	-75.949409
11541.796875	-79.588165
11627.929688	-88.981102
11714.062500	-83.967659
11800.195313	-80.550247
11886.328125	-80.312126
11972.460938	-81.982712
12058.593750	-83.335571
12144.726563	-88.245277
12230.859375	-83.790413
12316.992188	-79.928490
12403.125000	-80.596542
12489.257813	-82.002502
12575.390625	-81.594620
12661.523438	-81.189476
12747.656250	-80.762856
12833.789063	-82.333008
12919.921875	-86.083069
13006.054688	-86.274780
13092.187500	-87.421249
13178.320313	-89.126320
13264.453125	-90.543709
13350.585938	-90.624420
13436.718750	-91.848679
13522.851563	-89.825195
13608.984375	-85.436935
13695.117188	-83.149818
13781.250000	-82.558403
13867.382813	-82.355690
13953.515625	-81.036247
14039.648438	-83.192230
14125.781250	-91.756378
14211.914063	-87.733559
14298.046875	-82.048637
14384.179688	-81.740417
14470.312500	-90.673386
14556.445313	-90.273178
14642.578125	-89.278572
14728.710938	-95.111069
14814.843750	-89.808289
14900.976563	-88.113815
14987.109375	-88.542656
15073.242188	-88.539642
15159.375000	-94.305229
15245.507813	-97.314453
15331.640625	-100.667068
15417.773438	-99.791618
15503.906250	-97.640739
15590.039063	-91.763115
15676.171875	-87.857864
15762.304688	-87.591476
15848.437500	-88.894600
15934.570313	-86.556793
16020.703125	-86.458649
16106.835938	-87.734039
16192.968750	-86.607910
16279.101563	-85.706161
16365.234375	-86.916618
16451.367188	-91.000496
16537.500000	-95.129654
16623.632813	-92.738708
16709.765625	-99.399223
16795.898438	-93.383286
16882.031250	-91.615181
16968.164063	-90.863060
17054.296875	-87.968605
17140.429688	-86.590385
17226.562500	-86.371964
17312.695313	-87.220177
17398.828125	-88.294731
17484.960938	-90.466141
17571.093750	-89.879234
17657.226563	-89.452827
17743.359375	-93.027084
17829.492188	-96.751282
17915.625000	-97.571091
18001.757813	-109.894569
18087.890625	-97.643707
18174.023438	-93.904053
18260.156250	-93.536591
18346.289063	-92.749840
18432.421875	-92.255943
18518.554688	-91.185707
18604.687500	-91.262985
18690.820313	-93.418739
18776.953125	-99.940468
18863.085938	-109.795311
18949.218750	-105.008690
19035.351563	-106.395760
19121.484375	-101.344887
19207.617188	-95.526344
19293.750000	-94.556328
19379.882813	-98.920151
19466.015625	-98.731796
19552.148438	-93.376717
19638.281250	-94.150909
19724.414063	-100.693939
19810.546875	-98.507492
19896.679688	-97.903267
19982.812500	-100.196053
20068.945313	-101.127174
20155.078125	-102.729347
20241.210938	-107.743225
20327.343750	-111.136330
20413.476563	-111.395042
20499.609375	-110.012054
20585.742188	-110.481346
20671.875000	-110.883400
20758.007813	-118.233063
20844.140625	-117.491554
20930.273438	-118.212708
21016.406250	-119.585358
21102.539063	-113.790306
21188.671875	-113.726776
21274.804688	-117.886314
21360.937500	-121.554138
21447.070313	-120.018089
21533.203125	-120.917267
21619.335938	-124.723625
21705.468750	-127.919434
21791.601563	-130.448166
21877.734375	-133.906403
21963.867188	-135.114670
