Frequency (Hz)	Level (dB)
86.132813	-56.367329
172.265625	-59.766479
258.398438	-61.208775
344.531250	-62.475414
430.664063	-63.083691
516.796875	-63.754982
602.929688	-64.004578
689.062500	-65.322250
775.195313	-67.594910
861.328125	-66.603477
947.460938	-67.416748
1033.593750	-70.953659
1119.726563	-69.257973
1205.859375	-65.773125
1291.992188	-65.215614
1378.125000	-63.375916
1464.257813	-64.132889
1550.390625	-66.723015
1636.523438	-69.721367
1722.656250	-65.001053
1808.789063	-64.506783
1894.921875	-65.589417
1981.054688	-62.819981
2067.187500	-62.437981
2153.320313	-61.840626
2239.453125	-61.651051
2325.585938	-65.759041
2411.718750	-65.194443
2497.851563	-64.789078
2583.984375	-65.366249
2670.117188	-66.284294
2756.250000	-68.788399
2842.382813	-69.414833
2928.515625	-66.878654
3014.648438	-59.304287
3100.781250	-57.301765
3186.914063	-63.977848
3273.046875	-70.954811
3359.179688	-67.714325
3445.312500	-65.498993
3531.445313	-66.320755
3617.578125	-71.754807
3703.710938	-67.362778
3789.843750	-67.924728
3875.976563	-64.138626
3962.109375	-62.717712
4048.242188	-65.284599
4134.375000	-65.004738
4220.507813	-65.285286
4306.640625	-63.100670
4392.773438	-66.135941
4478.906250	-71.692459
4565.039063	-65.348801
4651.171875	-66.270752
4737.304688	-74.908768
4823.437500	-77.751015
4909.570313	-76.355377
4995.703125	-74.059586
5081.835938	-71.279610
5167.968750	-73.552788
5254.101563	-74.687813
5340.234375	-71.194862
5426.367188	-68.491936
5512.500000	-68.699570
5598.632813	-72.896248
5684.765625	-74.096558
5770.898438	-71.973938
5857.031250	-71.990532
5943.164063	-72.003700
6029.296875	-70.608154
6115.429688	-73.910622
6201.562500	-74.820183
6287.695313	-79.710114
6373.828125	-80.703232
6459.960938	-79.806801
6546.093750	-78.170479
6632.226563	-76.595062
6718.359375	-74.971321
6804.492188	-74.679909
6890.625000	-72.295021
6976.757813	-69.546173
7062.890625	-67.181709
7149.023438	-68.095032
7235.156250	-71.665405
7321.289063	-72.021461
7407.421875	-71.730728
7493.554688	-73.870491
7579.687500	-71.086914
7665.820313	-69.042099
7751.953125	-69.038612
7838.085938	-62.807247
7924.218750	-64.053963
8010.351563	-71.014206
8096.484375	-79.961121
8182.617188	-72.907593
8268.750000	-71.237640
8354.882813	-72.906746
8441.015625	-77.659676
8527.148438	-82.710823
8613.281250	-79.629707
8699.414063	-74.949562
8785.546875	-73.365250
8871.679688	-72.565834
8957.812500	-72.914413
9043.945313	-72.970352
9130.078125	-72.520378
9216.210938	-73.073975
9302.343750	-73.934128
9388.476563	-74.868843
9474.609375	-79.849152
9560.742188	-76.438126
9646.875000	-74.686401
9733.007813	-74.693588
9819.140625	-77.508362
9905.273438	-80.274109
9991.406250	-77.258263
10077.539063	-77.456741
10163.671875	-79.007088
10249.804688	-78.177536
10335.937500	-78.335617
10422.070313	-81.211365
10508.203125	-83.601517
10594.335938	-84.660301
10680.468750	-84.108559
10766.601563	-79.747910
10852.734375	-76.878334
10938.867188	-77.836533
11025.000000	-78.099480
11111.132813	-78.648277
11197.265625	-78.999496
11283.398438	-79.618553
11369.531250	-82.709068
11455.664063	-84.581245
11541.796875	-86.086357
11627.929688	-87.367195
11714.062500	-86.641296
11800.195313	-82.760139
11886.328125	-82.175774
11972.460938	-82.454399
12058.593750	-77.912865
12144.726563	-73.574768
12230.859375	-71.267723
12316.992188	-73.099022
12403.125000	-75.977798
12489.257813	-76.958107
12575.390625	-75.562096
12661.523438	-74.372025
12747.656250	-74.736710
12833.789063	-74.769287
12919.921875	-74.591949
13006.054688	-74.732567
13092.187500	-77.095650
13178.320313	-81.533768
13264.453125	-87.101952
13350.585938	-97.198753
13436.718750	-91.182831
13522.851563	-86.135017
13608.984375	-84.216927
13695.117188	-85.081871
13781.250000	-85.805305
13867.382813	-85.992126
13953.515625	-86.338982
14039.648438	-86.158455
14125.781250	-87.559708
14211.914063	-89.065804
14298.046875	-84.574615
14384.179688	-83.019409
14470.312500	-83.995049
14556.445313	-83.557495
14642.578125	-84.329559
14728.710938	-84.081566
14814.843750	-84.120377
14900.976563	-82.771492
14987.109375	-82.969910
15073.242188	-86.785210
15159.375000	-88.458679
15245.507813	-86.556862
15331.640625	-86.286201
15417.773438	-87.014114
15503.906250	-85.373230
15590.039063	-82.569252
15676.171875	-81.539742
15762.304688	-81.658012
15848.437500	-82.656960
15934.570313	-84.948616
16020.703125	-85.277107
16106.835938	-85.342606
16192.968750	-85.209068
16279.101563	-86.816200
16365.234375	-89.416306
16451.367188	-90.095642
16537.500000	-93.855103
16623.632813	-96.272079
16709.765625	-90.083160
16795.898438	-87.945396
16882.031250	-90.130936
16968.164063	-92.807922
17054.296875	-96.074051
17140.429688	-94.817932
17226.562500	-93.911652
17312.695313	-92.483658
17398.828125	-90.011856
17484.960938	-89.616714
17571.093750	-89.778336
17657.226563	-90.197861
17743.359375	-93.401749
17829.492188	-99.051331
17915.625000	-90.839714
18001.757813	-88.200890
18087.890625	-85.465446
18174.023438	-84.234550
18260.156250	-83.610260
18346.289063	-84.301208
18432.421875	-86.353508
18518.554688	-88.337387
18604.687500	-90.071571
18690.820313	-91.050766
18776.953125	-92.071419
18863.085938	-92.520607
18949.218750	-89.982437
19035.351563	-88.398476
19121.484375	-88.193214
19207.617188	-88.823883
19293.750000	-90.823700
19379.882813	-93.340080
19466.015625	-96.118027
19552.148438	-101.417076
19638.281250	-99.660316
19724.414063	-101.055367
19810.546875	-101.033112
19896.679688	-100.257133
19982.812500	-101.294144
20068.945313	-100.637238
20155.078125	-99.038307
20241.210938	-98.786270
20327.343750	-101.209846
20413.476563	-103.732185
20499.609375	-106.058762
20585.742188	-107.059616
20671.875000	-108.238686
20758.007813	-108.691902
20844.140625	-109.663513
20930.273438	-109.281296
21016.406250	-107.835739
21102.539063	-107.954277
21188.671875	-112.108711
21274.804688	-116.847664
21360.937500	-117.768089
21447.070313	-118.370613
21533.203125	-120.140358
21619.335938	-120.892021
21705.468750	-122.327705
21791.601563	-126.614449
21877.734375	-126.799370
21963.867188	-125.574753
