Frequency (Hz)	Level (dB)
86.132813	-46.463531
172.265625	-49.361366
258.398438	-52.865402
344.531250	-54.836655
430.664063	-57.026882
516.796875	-58.306599
602.929688	-58.696510
689.062500	-59.607792
775.195313	-61.847042
861.328125	-59.213558
947.460938	-60.146614
1033.593750	-64.466705
1119.726563	-63.729973
1205.859375	-62.794235
1291.992188	-61.187538
1378.125000	-56.231991
1464.257813	-57.946278
1550.390625	-61.514709
1636.523438	-61.856976
1722.656250	-64.204643
1808.789063	-62.473362
1894.921875	-59.201042
1981.054688	-57.278633
2067.187500	-60.673550
2153.320313	-61.466335
2239.453125	-58.361858
2325.585938	-60.486382
2411.718750	-60.989937
2497.851563	-58.730190
2583.984375	-61.076855
2670.117188	-61.645100
2756.250000	-62.037628
2842.382813	-64.087654
2928.515625	-57.126892
3014.648438	-50.363560
3100.781250	-52.058472
3186.914063	-56.992126
3273.046875	-63.445515
3359.179688	-59.170826
3445.312500	-57.789764
3531.445313	-61.008411
3617.578125	-64.326210
3703.710938	-60.705456
3789.843750	-52.444809
3875.976563	-51.004898
3962.109375	-54.416500
4048.242188	-60.322857
4134.375000	-62.273708
4220.507813	-61.023781
4306.640625	-64.840797
4392.773438	-66.616112
4478.906250	-67.145737
4565.039063	-64.573006
4651.171875	-59.685162
4737.304688	-57.296120
4823.437500	-55.707127
4909.570313	-57.685680
4995.703125	-63.076225
5081.835938	-65.514793
5167.968750	-62.583221
5254.101563	-57.873665
5340.234375	-57.295269
5426.367188	-56.105194
5512.500000	-57.885796
5598.632813	-55.206955
5684.765625	-51.895107
5770.898438	-49.539574
5857.031250	-51.648598
5943.164063	-43.121719
6029.296875	-39.803421
6115.429688	-45.301460
6201.562500	-53.240398
6287.695313	-57.089176
6373.828125	-58.970787
6459.960938	-61.590893
6546.093750	-63.906471
6632.226563	-64.189796
6718.359375	-64.752510
6804.492188	-67.413490
6890.625000	-70.131027
6976.757813	-72.522453
7062.890625	-72.962326
7149.023438	-72.502991
7235.156250	-72.193634
7321.289063	-77.116653
7407.421875	-80.287613
7493.554688	-78.119171
7579.687500	-75.488556
7665.820313	-77.375443
7751.953125	-75.167778
7838.085938	-79.594284
7924.218750	-82.278854
8010.351563	-75.506104
8096.484375	-74.226624
8182.617188	-73.574539
8268.750000	-76.084839
8354.882813	-75.347931
8441.015625	-74.308037
8527.148438	-73.062248
8613.281250	-73.545670
8699.414063	-73.060143
8785.546875	-69.679810
8871.679688	-69.472908
8957.812500	-71.469543
9043.945313	-75.961372
9130.078125	-75.688637
9216.210938	-74.927299
9302.343750	-77.430550
9388.476563	-72.105980
9474.609375	-71.791382
9560.742188	-73.851036
9646.875000	-73.118393
9733.007813	-69.261559
9819.140625	-67.949371
9905.273438	-70.590981
9991.406250	-74.297577
10077.539063	-78.015450
10163.671875	-75.931648
10249.804688	-73.498009
10335.937500	-74.011421
10422.070313	-77.672943
10508.203125	-80.162148
10594.335938	-80.134239
10680.468750	-75.558083
10766.601563	-71.747948
10852.734375	-69.440948
10938.867188	-70.340202
11025.000000	-74.550583
11111.132813	-72.269493
11197.265625	-72.920273
11283.398438	-76.334602
11369.531250	-79.284363
11455.664063	-78.033348
11541.796875	-77.361778
11627.929688	-74.482681
11714.062500	-75.728416
11800.195313	-77.221161
11886.328125	-74.991486
11972.460938	-75.861176
12058.593750	-73.656837
12144.726563	-69.331627
12230.859375	-65.593857
12316.992188	-68.013199
12403.125000	-73.858925
12489.257813	-77.606499
12575.390625	-80.417885
12661.523438	-84.169899
12747.656250	-89.213470
12833.789063	-90.635475
12919.921875	-93.705299
13006.054688	-93.807404
13092.187500	-92.915833
13178.320313	-92.514328
13264.453125	-91.621704
13350.585938	-86.765343
13436.718750	-82.576210
13522.851563	-82.508545
13608.984375	-82.866142
13695.117188	-83.729858
13781.250000	-84.613342
13867.382813	-84.202385
13953.515625	-82.748932
14039.648438	-82.730255
14125.781250	-81.725403
14211.914063	-79.329262
14298.046875	-79.017593
14384.179688	-81.348358
14470.312500	-82.458290
14556.445313	-83.855270
14642.578125	-82.636726
14728.710938	-83.849533
14814.843750	-85.502510
14900.976563	-85.402527
14987.109375	-86.832481
15073.242188	-84.988365
15159.375000	-85.230110
15245.507813	-86.694878
15331.640625	-84.751297
15417.773438	-80.690704
15503.906250	-78.096436
15590.039063	-78.384644
15676.171875	-79.001572
15762.304688	-80.689217
15848.437500	-81.044464
15934.570313	-83.405678
16020.703125	-83.978447
16106.835938	-81.956474
16192.968750	-83.910065
16279.101563	-85.930489
16365.234375	-88.258469
16451.367188	-95.056007
16537.500000	-94.747726
16623.632813	-95.457191
16709.765625	-95.834297
16795.898438	-96.953964
16882.031250	-99.566856
16968.164063	-96.140823
17054.296875	-99.451752
17140.429688	-97.595322
17226.562500	-99.673920
17312.695313	-95.507645
17398.828125	-94.056641
17484.960938	-95.330818
17571.093750	-94.386131
17657.226563	-99.097176
17743.359375	-92.020416
17829.492188	-87.898460
17915.625000	-86.234100
18001.757813	-82.875237
18087.890625	-81.828491
18174.023438	-81.353004
18260.156250	-80.707939
18346.289063	-82.596443
18432.421875	-87.652390
18518.554688	-90.291443
18604.687500	-88.623367
18690.820313	-86.865829
18776.953125	-87.350861
18863.085938	-89.274895
18949.218750	-90.246063
19035.351563	-91.147560
19121.484375	-92.955902
19207.617188	-94.846230
19293.750000	-97.996216
19379.882813	-95.220840
19466.015625	-95.709373
19552.148438	-97.764908
19638.281250	-95.667480
19724.414063	-98.224670
19810.546875	-98.545311
19896.679688	-99.360092
19982.812500	-101.921669
20068.945313	-107.383942
20155.078125	-108.777428
20241.210938	-106.096680
20327.343750	-104.906654
20413.476563	-105.171097
20499.609375	-109.616821
20585.742188	-109.888618
20671.875000	-112.848747
20758.007813	-111.989151
20844.140625	-112.072105
20930.273438	-113.670563
21016.406250	-110.303192
21102.539063	-108.973732
21188.671875	-111.539680
21274.804688	-114.018028
21360.937500	-115.387154
21447.070313	-121.084946
21533.203125	-123.712524
21619.335938	-121.752014
21705.468750	-122.514992
21791.601563	-123.843002
21877.734375	-125.730293
21963.867188	-126.780510
