Frequency (Hz)	Level (dB)
86.132813	-59.016399
172.265625	-61.648361
258.398438	-64.243614
344.531250	-63.860813
430.664063	-60.443546
516.796875	-64.619194
602.929688	-64.596901
689.062500	-66.162003
775.195313	-60.080120
861.328125	-53.443443
947.460938	-55.465431
1033.593750	-64.698479
1119.726563	-59.947853
1205.859375	-55.700401
1291.992188	-52.124565
1378.125000	-53.878845
1464.257813	-61.958138
1550.390625	-63.385883
1636.523438	-61.160126
1722.656250	-57.895416
1808.789063	-55.391762
1894.921875	-57.865841
1981.054688	-62.537159
2067.187500	-57.032707
2153.320313	-59.197464
2239.453125	-63.419197
2325.585938	-59.779648
2411.718750	-50.917778
2497.851563	-49.568108
2583.984375	-56.352291
2670.117188	-63.039913
2756.250000	-66.716797
2842.382813	-67.125252
2928.515625	-61.276764
3014.648438	-58.643204
3100.781250	-53.002140
3186.914063	-52.138538
3273.046875	-58.781990
3359.179688	-62.304066
3445.312500	-60.785427
3531.445313	-61.956398
3617.578125	-66.818611
3703.710938	-70.361572
3789.843750	-72.996750
3875.976563	-74.097786
3962.109375	-69.205818
4048.242188	-68.803566
4134.375000	-73.314857
4220.507813	-72.238564
4306.640625	-68.881454
4392.773438	-66.193268
4478.906250	-57.198185
4565.039063	-51.436367
4651.171875	-52.717575
4737.304688	-59.553688
4823.437500	-62.024094
4909.570313	-65.508354
4995.703125	-67.788940
5081.835938	-64.158852
5167.968750	-64.810188
5254.101563	-61.292282
5340.234375	-57.853600
5426.367188	-56.308487
5512.500000	-60.484291
5598.632813	-70.002525
5684.765625	-70.339119
5770.898438	-64.841423
5857.031250	-63.731400
5943.164063	-65.160988
6029.296875	-70.933624
6115.429688	-74.130783
6201.562500	-73.757805
6287.695313	-69.293114
6373.828125	-66.461464
6459.960938	-70.568924
6546.093750	-71.338539
6632.226563	-68.802277
6718.359375	-69.543144
6804.492188	-69.177849
6890.625000	-70.597694
6976.757813	-70.946503
7062.890625	-70.785454
7149.023438	-73.474014
7235.156250	-73.337532
7321.289063	-70.723618
7407.421875	-67.807877
7493.554688	-66.648308
7579.687500	-69.579231
7665.820313	-69.140579
7751.953125	-68.739174
7838.085938	-69.152039
7924.218750	-68.603088
8010.351563	-67.109604
8096.484375	-67.516472
8182.617188	-63.601082
8268.750000	-62.698051
8354.882813	-67.799500
8441.015625	-72.636688
8527.148438	-75.948090
8613.281250	-81.546982
8699.414063	-80.347176
8785.546875	-81.205490
8871.679688	-79.759430
8957.812500	-72.463318
9043.945313	-72.470985
9130.078125	-76.861382
9216.210938	-74.749207
9302.343750	-75.950294
9388.476563	-76.281097
9474.609375	-74.830132
9560.742188	-74.957932
9646.875000	-74.843460
9733.007813	-75.503616
9819.140625	-73.888931
9905.273438	-74.438019
9991.406250	-74.462936
10077.539063	-76.551720
10163.671875	-78.993980
10249.804688	-79.905434
10335.937500	-77.580887
10422.070313	-76.863937
10508.203125	-79.933067
10594.335938	-83.262810
10680.468750	-81.439178
10766.601563	-75.146309
10852.734375	-74.788757
10938.867188	-81.891060
11025.000000	-81.456085
11111.132813	-78.832840
11197.265625	-76.125237
11283.398438	-75.349052
11369.531250	-75.035347
11455.664063	-72.703369
11541.796875	-71.657166
11627.929688	-76.300865
11714.062500	-76.116791
11800.195313	-73.890877
11886.328125	-75.178551
11972.460938	-75.234550
12058.593750	-74.717369
12144.726563	-76.941589
12230.859375	-75.588135
12316.992188	-70.067741
12403.125000	-68.791145
12489.257813	-69.970657
12575.390625	-71.911224
12661.523438	-74.059464
12747.656250	-74.650139
12833.789063	-77.999054
12919.921875	-76.413292
13006.054688	-79.433960
13092.187500	-80.254562
13178.320313	-79.938789
13264.453125	-80.711082
13350.585938	-85.616112
13436.718750	-87.030037
13522.851563	-83.873833
13608.984375	-81.509811
13695.117188	-80.393860
13781.250000	-79.375771
13867.382813	-79.526688
13953.515625	-80.977150
14039.648438	-81.755875
14125.781250	-82.979179
14211.914063	-81.306038
14298.046875	-81.408455
14384.179688	-82.676865
14470.312500	-84.391449
14556.445313	-88.540131
14642.578125	-90.582024
14728.710938	-90.970100
14814.843750	-87.144501
14900.976563	-83.526398
14987.109375	-83.983841
15073.242188	-85.691139
15159.375000	-88.239944
15245.507813	-85.281204
15331.640625	-84.653496
15417.773438	-86.914070
15503.906250	-92.643478
15590.039063	-93.799065
15676.171875	-88.247231
15762.304688	-87.778969
15848.437500	-86.341782
15934.570313	-82.601036
16020.703125	-80.161362
16106.835938	-78.173279
16192.968750	-79.721016
16279.101563	-80.338493
16365.234375	-81.280869
16451.367188	-83.664490
16537.500000	-86.060265
16623.632813	-87.122963
16709.765625	-86.962189
16795.898438	-85.851036
16882.031250	-86.262955
16968.164063	-88.353973
17054.296875	-89.837334
17140.429688	-96.036804
17226.562500	-94.924347
17312.695313	-89.556610
17398.828125	-86.264969
17484.960938	-83.960083
17571.093750	-81.970947
17657.226563	-82.612999
17743.359375	-83.364326
17829.492188	-85.201698
17915.625000	-86.417465
18001.757813	-83.193710
18087.890625	-83.401222
18174.023438	-83.509308
18260.156250	-85.017250
18346.289063	-88.948669
18432.421875	-93.957214
18518.554688	-92.005569
18604.687500	-88.810982
18690.820313	-89.659523
18776.953125	-91.431061
18863.085938	-91.897797
18949.218750	-92.709702
19035.351563	-93.609032
19121.484375	-90.349518
19207.617188	-86.880135
19293.750000	-87.511299
19379.882813	-91.373756
19466.015625	-95.913086
19552.148438	-100.553665
19638.281250	-97.458534
19724.414063	-93.862862
19810.546875	-90.701500
19896.679688	-91.172005
19982.812500	-94.130630
20068.945313	-96.190292
20155.078125	-98.750916
20241.210938	-104.011635
20327.343750	-101.130745
20413.476563	-102.749031
20499.609375	-106.323364
20585.742188	-105.555763
20671.875000	-107.726509
20758.007813	-109.200363
20844.140625	-107.366798
20930.273438	-106.379929
21016.406250	-106.784500
21102.539063	-108.512711
21188.671875	-112.369308
21274.804688	-112.627060
21360.937500	-113.775505
21447.070313	-119.054520
21533.203125	-124.479378
21619.335938	-127.206612
21705.468750	-129.907379
21791.601563	-131.952179
21877.734375	-128.317520
21963.867188	-124.252014
