Frequency (Hz)	Level (dB)
86.132813	-49.749504
172.265625	-49.334816
258.398438	-51.920780
344.531250	-55.338737
430.664063	-53.428173
516.796875	-55.876659
602.929688	-60.910549
689.062500	-62.601288
775.195313	-56.546577
861.328125	-56.881790
947.460938	-67.055344
1033.593750	-62.565140
1119.726563	-58.005432
1205.859375	-55.760384
1291.992188	-57.666279
1378.125000	-62.544430
1464.257813	-54.326256
1550.390625	-49.795502
1636.523438	-52.435822
1722.656250	-59.511818
1808.789063	-58.340904
1894.921875	-62.854908
1981.054688	-46.505619
2067.187500	-42.174549
2153.320313	-47.110893
2239.453125	-56.659706
2325.585938	-63.100491
2411.718750	-61.867733
2497.851563	-57.344509
2583.984375	-55.496037
2670.117188	-56.948547
2756.250000	-58.171764
2842.382813	-55.137459
2928.515625	-56.305454
3014.648438	-60.086864
3100.781250	-62.226406
3186.914063	-57.639900
3273.046875	-56.117935
3359.179688	-51.501301
3445.312500	-48.188259
3531.445313	-51.883823
3617.578125	-57.188217
3703.710938	-62.320179
3789.843750	-66.074097
3875.976563	-61.642063
3962.109375	-59.338524
4048.242188	-51.007538
4134.375000	-47.696915
4220.507813	-49.582233
4306.640625	-52.905693
4392.773438	-53.808224
4478.906250	-52.770065
4565.039063	-50.034431
4651.171875	-49.840401
4737.304688	-52.501568
4823.437500	-56.142731
4909.570313	-57.712791
4995.703125	-57.927261
5081.835938	-58.110752
5167.968750	-54.185223
5254.101563	-49.149899
5340.234375	-46.352951
5426.367188	-47.750477
5512.500000	-54.485306
5598.632813	-57.190117
5684.765625	-60.146126
5770.898438	-62.768867
5857.031250	-58.171192
5943.164063	-52.010788
6029.296875	-49.791740
6115.429688	-51.834698
6201.562500	-53.744003
6287.695313	-54.047718
6373.828125	-56.913948
6459.960938	-60.455330
6546.093750	-60.333141
6632.226563	-60.326225
6718.359375	-63.880394
6804.492188	-68.085518
6890.625000	-71.664391
6976.757813	-67.444893
7062.890625	-63.157482
7149.023438	-63.143517
7235.156250	-63.838440
7321.289063	-67.467957
7407.421875	-70.737793
7493.554688	-65.702843
7579.687500	-67.226196
7665.820313	-68.402016
7751.953125	-63.702404
7838.085938	-60.432686
7924.218750	-60.435997
8010.351563	-63.094711
8096.484375	-67.733086
8182.617188	-73.552979
8268.750000	-81.192055
8354.882813	-77.582367
8441.015625	-77.857498
8527.148438	-77.778114
8613.281250	-79.599976
8699.414063	-72.370773
8785.546875	-65.811653
8871.679688	-63.814949
8957.812500	-66.512260
9043.945313	-73.073769
9130.078125	-70.623886
9216.210938	-68.515549
9302.343750	-69.143173
9388.476563	-72.473999
9474.609375	-82.475288
9560.742188	-77.067665
9646.875000	-72.909538
9733.007813	-73.132469
9819.140625	-72.018227
9905.273438	-72.235046
9991.406250	-74.355240
10077.539063	-70.225204
10163.671875	-66.902771
10249.804688	-66.836594
10335.937500	-68.838936
10422.070313	-68.137421
10508.203125	-65.370750
10594.335938	-63.713619
10680.468750	-63.827965
10766.601563	-65.383003
10852.734375	-66.944489
10938.867188	-68.440353
11025.000000	-70.398972
11111.132813	-72.686234
11197.265625	-78.845390
11283.398438	-83.610428
11369.531250	-77.645905
11455.664063	-78.591377
11541.796875	-88.880486
11627.929688	-77.683533
11714.062500	-74.237701
11800.195313	-76.364799
11886.328125	-82.612480
11972.460938	-78.723480
12058.593750	-75.873520
12144.726563	-77.758568
12230.859375	-81.812141
12316.992188	-83.575401
12403.125000	-82.214882
12489.257813	-82.469826
12575.390625	-84.420570
12661.523438	-82.673218
12747.656250	-81.728561
12833.789063	-83.420135
12919.921875	-84.913765
13006.054688	-87.012672
13092.187500	-88.923225
13178.320313	-86.551628
13264.453125	-84.642471
13350.585938	-84.124756
13436.718750	-85.289581
13522.851563	-87.881592
13608.984375	-91.132874
13695.117188	-89.741966
13781.250000	-82.515892
13867.382813	-78.837044
13953.515625	-77.578857
14039.648438	-75.629196
14125.781250	-73.872719
14211.914063	-74.971344
14298.046875	-78.483109
14384.179688	-80.110046
14470.312500	-82.385704
14556.445313	-88.744637
14642.578125	-95.701500
14728.710938	-92.135773
14814.843750	-87.429611
14900.976563	-83.022408
14987.109375	-79.550392
15073.242188	-76.735664
15159.375000	-76.203461
15245.507813	-78.294998
15331.640625	-81.976868
15417.773438	-82.879906
15503.906250	-78.915649
15590.039063	-76.328033
15676.171875	-76.708740
15762.304688	-79.883163
15848.437500	-83.783226
15934.570313	-86.191597
16020.703125	-89.126106
16106.835938	-90.249084
16192.968750	-93.631607
16279.101563	-96.890846
16365.234375	-92.178642
16451.367188	-90.596588
16537.500000	-90.602524
16623.632813	-91.989151
16709.765625	-94.174088
16795.898438	-95.581116
16882.031250	-98.727798
16968.164063	-102.760971
17054.296875	-101.022415
17140.429688	-95.637062
17226.562500	-91.274261
17312.695313	-89.149345
17398.828125	-88.166946
17484.960938	-88.141075
17571.093750	-90.115906
17657.226563	-95.694931
17743.359375	-97.832031
17829.492188	-93.128990
17915.625000	-90.378067
18001.757813	-90.652809
18087.890625	-90.161812
18174.023438	-88.513771
18260.156250	-88.694763
18346.289063	-87.868881
18432.421875	-87.415840
18518.554688	-88.439133
18604.687500	-88.668114
18690.820313	-88.176613
18776.953125	-89.757431
18863.085938	-91.644104
18949.218750	-90.067825
19035.351563	-89.538460
19121.484375	-89.526558
19207.617188	-91.122307
19293.750000	-91.447433
19379.882813	-91.865135
19466.015625	-95.852936
19552.148438	-103.400803
19638.281250	-98.275925
19724.414063	-95.190041
19810.546875	-98.015022
19896.679688	-98.931183
19982.812500	-97.013840
20068.945313	-99.415916
20155.078125	-105.079346
20241.210938	-109.441444
20327.343750	-108.685944
20413.476563	-105.683075
20499.609375	-104.917282
20585.742188	-109.437889
20671.875000	-116.481186
20758.007813	-114.845337
20844.140625	-115.892815
20930.273438	-115.609192
21016.406250	-116.303322
21102.539063	-118.814423
21188.671875	-123.128418
21274.804688	-123.100143
21360.937500	-124.179260
21447.070313	-126.415611
21533.203125	-128.548325
21619.335938	-128.334244
21705.468750	-130.458969
21791.601563	-131.928375
21877.734375	-132.470901
21963.867188	-134.998993
