Frequency (Hz)	Level (dB)
86.132813	-50.989090
172.265625	-53.671520
258.398438	-58.129837
344.531250	-59.584705
430.664063	-59.299530
516.796875	-61.453621
602.929688	-63.061459
689.062500	-64.321671
775.195313	-65.024643
861.328125	-66.208160
947.460938	-59.242107
1033.593750	-59.116573
1119.726563	-62.043293
1205.859375	-58.106731
1291.992188	-57.453098
1378.125000	-61.653385
1464.257813	-58.662819
1550.390625	-58.010143
1636.523438	-61.886906
1722.656250	-68.670029
1808.789063	-66.367058
1894.921875	-63.648979
1981.054688	-63.302597
2067.187500	-59.134651
2153.320313	-55.526188
2239.453125	-56.943531
2325.585938	-63.769947
2411.718750	-64.773438
2497.851563	-57.449474
2583.984375	-58.439335
2670.117188	-60.579250
2756.250000	-62.430016
2842.382813	-65.677338
2928.515625	-65.636864
3014.648438	-67.926254
3100.781250	-68.499191
3186.914063	-65.949989
3273.046875	-61.702328
3359.179688	-58.940441
3445.312500	-60.859299
3531.445313	-63.286690
3617.578125	-58.222446
3703.710938	-59.605122
3789.843750	-67.536331
3875.976563	-65.119965
3962.109375	-55.953453
4048.242188	-46.177605
4134.375000	-42.733246
4220.507813	-45.528046
4306.640625	-47.339809
4392.773438	-51.018658
4478.906250	-53.576965
4565.039063	-51.852074
4651.171875	-58.340206
4737.304688	-64.242500
4823.437500	-65.006927
4909.570313	-69.362404
4995.703125	-66.828117
5081.835938	-60.186676
5167.968750	-50.164070
5254.101563	-44.751781
5340.234375	-45.959824
5426.367188	-53.867050
5512.500000	-55.788013
5598.632813	-57.184994
5684.765625	-59.400372
5770.898438	-55.692642
5857.031250	-49.959766
5943.164063	-47.090668
6029.296875	-48.329384
6115.429688	-54.242634
6201.562500	-60.060562
6287.695313	-59.122601
6373.828125	-58.358986
6459.960938	-61.026108
6546.093750	-64.141830
6632.226563	-67.189606
6718.359375	-71.376205
6804.492188	-73.818726
6890.625000	-73.650505
6976.757813	-73.313377
7062.890625	-72.934334
7149.023438	-71.799675
7235.156250	-70.835960
7321.289063	-74.236893
7407.421875	-68.759903
7493.554688	-66.583717
7579.687500	-69.690239
7665.820313	-70.876045
7751.953125	-69.598305
7838.085938	-71.939888
7924.218750	-75.844109
8010.351563	-76.925743
8096.484375	-74.597198
8182.617188	-75.081985
8268.750000	-71.339676
8354.882813	-65.534996
8441.015625	-65.386116
8527.148438	-66.813499
8613.281250	-67.167755
8699.414063	-69.296005
8785.546875	-72.144127
8871.679688	-72.062920
8957.812500	-69.668282
9043.945313	-70.090569
9130.078125	-70.385963
9216.210938	-67.344795
9302.343750	-66.605782
9388.476563	-67.762863
9474.609375	-69.772308
9560.742188	-76.503975
9646.875000	-73.566093
9733.007813	-72.007362
9819.140625	-73.638611
9905.273438	-75.501350
9991.406250	-76.670784
10077.539063	-81.766716
10163.671875	-82.662254
10249.804688	-78.920044
10335.937500	-70.743637
10422.070313	-66.805809
10508.203125	-64.226433
10594.335938	-63.869698
10680.468750	-67.422554
10766.601563	-70.615738
10852.734375	-66.360558
10938.867188	-63.405884
11025.000000	-65.200340
11111.132813	-67.742035
11197.265625	-67.769989
11283.398438	-70.977280
11369.531250	-72.179619
11455.664063	-71.358864
11541.796875	-70.500366
11627.929688	-71.559837
11714.062500	-72.641190
11800.195313	-75.505882
11886.328125	-72.857544
11972.460938	-71.419609
12058.593750	-74.212532
12144.726563	-78.425209
12230.859375	-78.021675
12316.992188	-72.993553
12403.125000	-69.962402
12489.257813	-68.799057
12575.390625	-70.855255
12661.523438	-74.110489
12747.656250	-78.650253
12833.789063	-80.926018
12919.921875	-84.093102
13006.054688	-86.927986
13092.187500	-89.400505
13178.320313	-89.208557
13264.453125	-91.482368
13350.585938	-89.287247
13436.718750	-87.551888
13522.851563	-87.704735
13608.984375	-89.572754
13695.117188	-90.352875
13781.250000	-82.851707
13867.382813	-80.849831
13953.515625	-81.355675
14039.648438	-80.806145
14125.781250	-79.861603
14211.914063	-80.939705
14298.046875	-82.021591
14384.179688	-83.498833
14470.312500	-81.202957
14556.445313	-81.750534
14642.578125	-82.712440
14728.710938	-82.028107
14814.843750	-81.800667
14900.976563	-79.885399
14987.109375	-80.115105
15073.242188	-83.859200
15159.375000	-86.146477
15245.507813	-85.381332
15331.640625	-86.340363
15417.773438	-87.726234
15503.906250	-84.242599
15590.039063	-78.351471
15676.171875	-75.534065
15762.304688	-75.729416
15848.437500	-77.208656
15934.570313	-80.035126
16020.703125	-80.253036
16106.835938	-80.825409
16192.968750	-81.934692
16279.101563	-82.285591
16365.234375	-84.097511
16451.367188	-88.827080
16537.500000	-93.858978
16623.632813	-96.026711
16709.765625	-94.930946
16795.898438	-93.182724
16882.031250	-93.895447
16968.164063	-97.334763
17054.296875	-94.786240
17140.429688	-95.692932
17226.562500	-93.671227
17312.695313	-90.314842
17398.828125	-90.794388
17484.960938	-92.245255
17571.093750	-88.651611
17657.226563	-85.894440
17743.359375	-88.132828
17829.492188	-89.529480
17915.625000	-87.504166
18001.757813	-89.125748
18087.890625	-88.985863
18174.023438	-87.820747
18260.156250	-86.412064
18346.289063	-84.862900
18432.421875	-85.776337
18518.554688	-87.189133
18604.687500	-86.185951
18690.820313	-88.182091
18776.953125	-91.922485
18863.085938	-92.703110
18949.218750	-92.600319
19035.351563	-92.284004
19121.484375	-94.537704
19207.617188	-97.113762
19293.750000	-96.673958
19379.882813	-95.737228
19466.015625	-93.473633
19552.148438	-95.208473
19638.281250	-96.564499
19724.414063	-96.773148
19810.546875	-99.258041
19896.679688	-99.829750
19982.812500	-98.362679
20068.945313	-101.346855
20155.078125	-105.019066
20241.210938	-106.535019
20327.343750	-107.348145
20413.476563	-107.685104
20499.609375	-108.025002
20585.742188	-108.834885
20671.875000	-109.641129
20758.007813	-112.972618
20844.140625	-114.072220
20930.273438	-113.100212
21016.406250	-109.840645
21102.539063	-111.906288
21188.671875	-115.806953
21274.804688	-118.688431
21360.937500	-120.154251
21447.070313	-121.083725
21533.203125	-121.869156
21619.335938	-119.875145
21705.468750	-124.531410
21791.601563	-124.181206
21877.734375	-126.203438
21963.867188	-130.250137
