Frequency (Hz)	Level (dB)
86.132813	-41.713223
172.265625	-50.166592
258.398438	-55.228172
344.531250	-56.547707
430.664063	-57.951385
516.796875	-59.163208
602.929688	-59.614353
689.062500	-59.900406
775.195313	-60.802818
861.328125	-61.190140
947.460938	-59.619450
1033.593750	-58.064880
1119.726563	-63.856987
1205.859375	-65.700516
1291.992188	-59.774860
1378.125000	-61.302395
1464.257813	-50.660263
1550.390625	-49.562813
1636.523438	-58.072262
1722.656250	-71.656433
1808.789063	-67.882957
1894.921875	-65.817101
1981.054688	-59.191811
2067.187500	-52.822353
2153.320313	-51.595520
2239.453125	-54.743149
2325.585938	-60.455750
2411.718750	-63.385860
2497.851563	-61.596863
2583.984375	-65.429337
2670.117188	-69.647079
2756.250000	-60.373241
2842.382813	-55.585533
2928.515625	-58.810524
3014.648438	-61.418919
3100.781250	-61.940704
3186.914063	-60.535362
3273.046875	-58.094322
3359.179688	-51.799271
3445.312500	-47.756073
3531.445313	-52.063354
3617.578125	-59.501686
3703.710938	-62.406273
3789.843750	-67.518684
3875.976563	-71.385468
3962.109375	-73.848000
4048.242188	-70.874733
4134.375000	-72.094673
4220.507813	-73.380959
4306.640625	-67.960793
4392.773438	-63.184181
4478.906250	-58.421909
4565.039063	-59.032410
4651.171875	-65.158875
4737.304688	-78.098923
4823.437500	-74.405754
4909.570313	-71.361771
4995.703125	-66.682648
5081.835938	-58.666763
5167.968750	-56.695045
5254.101563	-57.718884
5340.234375	-54.409393
5426.367188	-55.295464
5512.500000	-60.079449
5598.632813	-64.784782
5684.765625	-61.898708
5770.898438	-57.652103
5857.031250	-52.215698
5943.164063	-51.187794
6029.296875	-54.907097
6115.429688	-57.475174
6201.562500	-60.459148
6287.695313	-62.554676
6373.828125	-64.207039
6459.960938	-65.274544
6546.093750	-64.560974
6632.226563	-65.228004
6718.359375	-67.629868
6804.492188	-69.322311
6890.625000	-70.594688
6976.757813	-70.229012
7062.890625	-68.258026
7149.023438	-68.434151
7235.156250	-68.596924
7321.289063	-68.740227
7407.421875	-68.507957
7493.554688	-66.795555
7579.687500	-65.679176
7665.820313	-63.014500
7751.953125	-63.701309
7838.085938	-67.962059
7924.218750	-70.392998
8010.351563	-72.099876
8096.484375	-76.231247
8182.617188	-76.475174
8268.750000	-74.622368
8354.882813	-73.929237
8441.015625	-72.333031
8527.148438	-69.247940
8613.281250	-67.467209
8699.414063	-67.366692
8785.546875	-68.215004
8871.679688	-72.483818
8957.812500	-78.931808
9043.945313	-80.272049
9130.078125	-78.225075
9216.210938	-78.653000
9302.343750	-79.119873
9388.476563	-80.095879
9474.609375	-80.353432
9560.742188	-80.907623
9646.875000	-81.416245
9733.007813	-83.210327
9819.140625	-84.961151
9905.273438	-90.745979
9991.406250	-95.084923
10077.539063	-92.655319
10163.671875	-94.981949
10249.804688	-98.627998
10335.937500	-95.245270
10422.070313	-88.569763
10508.203125	-84.297813
10594.335938	-81.178116
10680.468750	-81.034218
10766.601563	-82.157021
10852.734375	-84.620316
10938.867188	-89.255333
11025.000000	-94.508408
11111.132813	-99.079254
11197.265625	-98.981598
11283.398438	-98.321648
11369.531250	-97.710106
11455.664063	-97.362602
11541.796875	-97.481041
11627.929688	-94.246201
11714.062500	-93.110680
11800.195313	-91.420753
11886.328125	-86.509041
11972.460938	-82.944389
12058.593750	-80.559349
12144.726563	-81.120041
12230.859375	-86.312874
12316.992188	-92.042297
12403.125000	-94.488396
12489.257813	-96.354431
12575.390625	-95.649261
12661.523438	-93.527817
12747.656250	-92.609398
12833.789063	-93.003197
12919.921875	-92.409378
13006.054688	-92.333725
13092.187500	-91.374947
13178.320313	-90.926056
13264.453125	-91.826347
13350.585938	-92.893463
13436.718750	-92.987129
13522.851563	-94.138763
13608.984375	-97.841766
13695.117188	-100.032593
13781.250000	-100.117264
13867.382813	-98.342766
13953.515625	-96.915543
14039.648438	-96.634232
14125.781250	-94.844513
14211.914063	-94.219505
14298.046875	-95.593636
14384.179688	-96.606010
14470.312500	-95.922119
14556.445313	-93.582771
14642.578125	-93.072205
14728.710938	-94.518410
14814.843750	-96.592911
14900.976563	-98.469757
14987.109375	-99.240417
15073.242188	-100.209763
15159.375000	-101.289314
15245.507813	-102.993874
15331.640625	-106.087425
15417.773438	-109.249321
15503.906250	-106.309532
15590.039063	-101.816635
15676.171875	-97.699036
15762.304688	-96.399071
15848.437500	-98.470810
15934.570313	-102.612999
16020.703125	-103.198891
16106.835938	-102.308365
16192.968750	-103.037964
16279.101563	-104.918869
16365.234375	-106.488426
16451.367188	-105.588448
16537.500000	-104.010574
16623.632813	-106.293289
16709.765625	-110.327789
16795.898438	-113.843674
16882.031250	-118.110497
16968.164063	-119.795555
17054.296875	-118.414383
17140.429688	-117.013573
17226.562500	-111.727417
17312.695313	-110.649490
17398.828125	-106.125977
17484.960938	-103.343719
17571.093750	-103.895256
17657.226563	-106.569778
17743.359375	-107.712555
17829.492188	-106.809944
17915.625000	-104.397285
18001.757813	-103.019234
18087.890625	-102.477928
18174.023438	-102.789230
18260.156250	-102.214706
18346.289063	-103.717094
18432.421875	-106.932594
18518.554688	-108.025551
18604.687500	-107.235291
18690.820313	-107.004967
18776.953125	-108.043045
18863.085938	-109.249619
18949.218750	-109.018532
19035.351563	-108.702591
19121.484375	-106.611015
19207.617188	-105.273743
19293.750000	-106.953125
19379.882813	-108.441605
19466.015625	-112.082977
19552.148438	-114.705338
19638.281250	-111.311440
19724.414063	-109.648750
19810.546875	-113.075836
19896.679688	-115.969032
19982.812500	-120.097954
20068.945313	-125.723663
20155.078125	-121.531227
20241.210938	-120.510582
20327.343750	-124.055038
20413.476563	-127.977364
20499.609375	-125.161346
20585.742188	-123.697861
20671.875000	-122.990829
20758.007813	-125.725311
20844.140625	-128.662125
20930.273438	-127.384888
21016.406250	-128.143250
21102.539063	-127.022186
21188.671875	-130.219650
21274.804688	-134.566574
21360.937500	-135.022324
21447.070313	-136.365707
21533.203125	-138.533401
21619.335938	-140.100403
21705.468750	-137.105011
21791.601563	-137.008759
21877.734375	-139.529877
21963.867188	-140.959915
