Frequency (Hz)	Level (dB)
86.132813	-51.032040
172.265625	-51.237045
258.398438	-57.563789
344.531250	-57.918953
430.664063	-55.269028
516.796875	-58.805965
602.929688	-62.787933
689.062500	-60.985771
775.195313	-53.546669
861.328125	-53.701611
947.460938	-61.309860
1033.593750	-63.811230
1119.726563	-59.433186
1205.859375	-56.509888
1291.992188	-60.143490
1378.125000	-61.034443
1464.257813	-48.458267
1550.390625	-44.587322
1636.523438	-48.301559
1722.656250	-60.441990
1808.789063	-59.012409
1894.921875	-60.483265
1981.054688	-46.513435
2067.187500	-42.042431
2153.320313	-47.442822
2239.453125	-57.418278
2325.585938	-63.434059
2411.718750	-63.722782
2497.851563	-59.156494
2583.984375	-56.713814
2670.117188	-58.910873
2756.250000	-61.262348
2842.382813	-55.511230
2928.515625	-57.627975
3014.648438	-61.340836
3100.781250	-62.563759
3186.914063	-60.365276
3273.046875	-58.517906
3359.179688	-53.770378
3445.312500	-48.783680
3531.445313	-50.098698
3617.578125	-54.074203
3703.710938	-59.979897
3789.843750	-67.901840
3875.976563	-59.332512
3962.109375	-52.823776
4048.242188	-46.737198
4134.375000	-44.512424
4220.507813	-48.196903
4306.640625	-54.250355
4392.773438	-54.594460
4478.906250	-52.569271
4565.039063	-49.532547
4651.171875	-48.485855
4737.304688	-53.526501
4823.437500	-57.537750
4909.570313	-60.821877
4995.703125	-59.332050
5081.835938	-59.985046
5167.968750	-55.924015
5254.101563	-53.169682
5340.234375	-48.254951
5426.367188	-50.602982
5512.500000	-59.192661
5598.632813	-60.983761
5684.765625	-63.834499
5770.898438	-62.409492
5857.031250	-60.099983
5943.164063	-57.198750
6029.296875	-52.864765
6115.429688	-56.715157
6201.562500	-60.253578
6287.695313	-56.027000
6373.828125	-58.628326
6459.960938	-64.617088
6546.093750	-62.865025
6632.226563	-61.110950
6718.359375	-65.849579
6804.492188	-67.053528
6890.625000	-67.001427
6976.757813	-65.864075
7062.890625	-65.207794
7149.023438	-66.945374
7235.156250	-68.580460
7321.289063	-72.856766
7407.421875	-72.801918
7493.554688	-70.616035
7579.687500	-65.933769
7665.820313	-64.479683
7751.953125	-69.107933
7838.085938	-66.880821
7924.218750	-63.127129
8010.351563	-58.627670
8096.484375	-58.785896
8182.617188	-62.008141
8268.750000	-68.463554
8354.882813	-67.281052
8441.015625	-66.330246
8527.148438	-68.124176
8613.281250	-70.029755
8699.414063	-71.481514
8785.546875	-61.945026
8871.679688	-58.278778
8957.812500	-60.628845
9043.945313	-65.941269
9130.078125	-65.222267
9216.210938	-61.753628
9302.343750	-60.888630
9388.476563	-62.650196
9474.609375	-64.096344
9560.742188	-62.767349
9646.875000	-61.823265
9733.007813	-65.283089
9819.140625	-73.368561
9905.273438	-76.724152
9991.406250	-74.661423
10077.539063	-68.019585
10163.671875	-64.396591
10249.804688	-63.559311
10335.937500	-66.770470
10422.070313	-64.760735
10508.203125	-58.898277
10594.335938	-56.249432
10680.468750	-56.965191
10766.601563	-59.566219
10852.734375	-60.871098
10938.867188	-63.729259
11025.000000	-68.914192
11111.132813	-68.268616
11197.265625	-71.250214
11283.398438	-77.298050
11369.531250	-76.671745
11455.664063	-76.624130
11541.796875	-75.538345
11627.929688	-71.843956
11714.062500	-71.270493
11800.195313	-69.227097
11886.328125	-69.215767
11972.460938	-74.610130
12058.593750	-69.531731
12144.726563	-67.415184
12230.859375	-68.560104
12316.992188	-70.864006
12403.125000	-69.220360
12489.257813	-69.021515
12575.390625	-73.787437
12661.523438	-75.606575
12747.656250	-76.361130
12833.789063	-80.661446
12919.921875	-79.970284
13006.054688	-79.698265
13092.187500	-81.302567
13178.320313	-85.865273
13264.453125	-86.653488
13350.585938	-81.745102
13436.718750	-79.452110
13522.851563	-77.680237
13608.984375	-78.643867
13695.117188	-77.048676
13781.250000	-75.586670
13867.382813	-77.100876
13953.515625	-77.145241
14039.648438	-74.495377
14125.781250	-70.741035
14211.914063	-71.631126
14298.046875	-75.141479
14384.179688	-82.042320
14470.312500	-86.891518
14556.445313	-85.034615
14642.578125	-82.597473
14728.710938	-83.827789
14814.843750	-84.302864
14900.976563	-81.634827
14987.109375	-78.925980
15073.242188	-75.692513
15159.375000	-74.221687
15245.507813	-76.028824
15331.640625	-80.175331
15417.773438	-82.125816
15503.906250	-78.222313
15590.039063	-74.887955
15676.171875	-74.274094
15762.304688	-76.345665
15848.437500	-78.764664
15934.570313	-79.842979
16020.703125	-81.151878
16106.835938	-80.389977
16192.968750	-78.692749
16279.101563	-78.633781
16365.234375	-80.776199
16451.367188	-84.432182
16537.500000	-90.734192
16623.632813	-96.531654
16709.765625	-92.501602
16795.898438	-90.398361
16882.031250	-91.972565
16968.164063	-92.445976
17054.296875	-89.541847
17140.429688	-90.073158
17226.562500	-85.805817
17312.695313	-84.103134
17398.828125	-83.999435
17484.960938	-85.370834
17571.093750	-87.676201
17657.226563	-89.902138
17743.359375	-89.483665
17829.492188	-88.257813
17915.625000	-87.820305
18001.757813	-85.326271
18087.890625	-86.494102
18174.023438	-82.298912
18260.156250	-79.440926
18346.289063	-81.033951
18432.421875	-83.001747
18518.554688	-82.345139
18604.687500	-83.606796
18690.820313	-84.375496
18776.953125	-83.589615
18863.085938	-83.219383
18949.218750	-82.777298
19035.351563	-81.741661
19121.484375	-82.075867
19207.617188	-84.376778
19293.750000	-85.670044
19379.882813	-87.730225
19466.015625	-88.718582
19552.148438	-87.664185
19638.281250	-89.262283
19724.414063	-94.912331
19810.546875	-95.792976
19896.679688	-97.529022
19982.812500	-96.730148
20068.945313	-97.488258
20155.078125	-102.241920
20241.210938	-105.118179
20327.343750	-104.400612
20413.476563	-107.330528
20499.609375	-105.250000
20585.742188	-104.575546
20671.875000	-106.631462
20758.007813	-106.535675
20844.140625	-109.312691
20930.273438	-109.349197
21016.406250	-110.344406
21102.539063	-110.282364
21188.671875	-111.236839
21274.804688	-118.115242
21360.937500	-121.819214
21447.070313	-125.420441
21533.203125	-122.993828
21619.335938	-123.969009
21705.468750	-129.358856
21791.601563	-133.066345
21877.734375	-131.001175
21963.867188	-134.308746
