Frequency (Hz)	Level (dB)
86.132813	-45.392048
172.265625	-47.974327
258.398438	-50.428806
344.531250	-52.476662
430.664063	-53.398949
516.796875	-54.190308
602.929688	-55.290836
689.062500	-56.916946
775.195313	-58.541523
861.328125	-61.182964
947.460938	-66.857491
1033.593750	-65.199478
1119.726563	-61.132114
1205.859375	-59.568428
1291.992188	-60.569023
1378.125000	-62.898670
1464.257813	-59.889465
1550.390625	-59.919781
1636.523438	-64.137863
1722.656250	-64.525719
1808.789063	-60.042114
1894.921875	-60.623787
1981.054688	-58.095284
2067.187500	-55.887768
2153.320313	-58.463375
2239.453125	-63.624340
2325.585938	-75.025391
2411.718750	-69.126762
2497.851563	-65.384521
2583.984375	-64.031021
2670.117188	-64.999062
2756.250000	-71.881363
2842.382813	-61.893700
2928.515625	-60.735836
3014.648438	-64.699989
3100.781250	-67.484245
3186.914063	-66.016518
3273.046875	-63.771553
3359.179688	-65.063454
3445.312500	-59.487251
3531.445313	-57.515362
3617.578125	-62.667393
3703.710938	-65.635971
3789.843750	-70.157646
3875.976563	-57.786030
3962.109375	-52.660488
4048.242188	-54.654785
4134.375000	-58.263805
4220.507813	-62.728928
4306.640625	-69.593346
4392.773438	-72.608978
4478.906250	-67.605743
4565.039063	-67.771378
4651.171875	-70.396446
4737.304688	-73.986526
4823.437500	-76.404915
4909.570313	-76.619041
4995.703125	-69.627739
5081.835938	-63.791115
5167.968750	-62.276859
5254.101563	-67.765526
5340.234375	-68.112839
5426.367188	-61.011211
5512.500000	-59.304134
5598.632813	-58.834770
5684.765625	-58.223358
5770.898438	-57.230576
5857.031250	-54.482071
5943.164063	-50.373379
6029.296875	-50.321095
6115.429688	-57.528652
6201.562500	-67.339966
6287.695313	-71.834999
6373.828125	-71.673035
6459.960938	-72.348831
6546.093750	-73.523590
6632.226563	-76.524857
6718.359375	-75.526428
6804.492188	-73.838463
6890.625000	-75.758614
6976.757813	-73.270584
7062.890625	-69.093475
7149.023438	-68.000542
7235.156250	-67.983215
7321.289063	-65.753723
7407.421875	-62.005951
7493.554688	-58.493416
7579.687500	-56.862141
7665.820313	-57.490517
7751.953125	-60.749664
7838.085938	-61.754929
7924.218750	-60.261471
8010.351563	-61.199272
8096.484375	-63.856754
8182.617188	-66.940460
8268.750000	-68.407921
8354.882813	-70.981773
8441.015625	-72.027763
8527.148438	-69.143097
8613.281250	-68.602524
8699.414063	-71.415077
8785.546875	-76.685234
8871.679688	-72.219620
8957.812500	-70.106995
9043.945313	-71.036339
9130.078125	-72.254959
9216.210938	-73.353668
9302.343750	-76.242233
9388.476563	-79.521431
9474.609375	-79.093224
9560.742188	-79.209404
9646.875000	-82.035240
9733.007813	-87.317795
9819.140625	-90.818657
9905.273438	-89.445671
9991.406250	-87.614998
10077.539063	-86.642746
10163.671875	-84.599525
10249.804688	-84.299469
10335.937500	-84.436317
10422.070313	-83.897919
10508.203125	-84.262680
10594.335938	-83.896996
10680.468750	-83.750687
10766.601563	-85.771996
10852.734375	-87.637383
10938.867188	-89.221222
11025.000000	-91.762878
11111.132813	-87.793091
11197.265625	-83.348427
11283.398438	-81.810608
11369.531250	-83.209900
11455.664063	-87.509201
11541.796875	-93.083069
11627.929688	-87.411728
11714.062500	-85.467468
11800.195313	-86.184677
11886.328125	-86.410011
11972.460938	-79.221428
12058.593750	-73.242035
12144.726563	-69.244339
12230.859375	-68.707214
12316.992188	-72.444748
12403.125000	-77.719231
12489.257813	-83.014076
12575.390625	-85.777824
12661.523438	-84.097992
12747.656250	-84.228745
12833.789063	-85.554382
12919.921875	-87.735146
13006.054688	-91.120331
13092.187500	-93.036316
13178.320313	-92.586662
13264.453125	-89.689255
13350.585938	-86.730309
13436.718750	-84.904228
13522.851563	-84.533485
13608.984375	-84.067863
13695.117188	-84.016815
13781.250000	-85.847443
13867.382813	-88.581688
13953.515625	-91.297897
14039.648438	-94.567986
14125.781250	-92.210510
14211.914063	-88.905556
14298.046875	-86.098656
14384.179688	-84.659348
14470.312500	-83.854469
14556.445313	-82.155075
14642.578125	-81.140800
14728.710938	-82.123703
14814.843750	-82.004715
14900.976563	-80.431816
14987.109375	-82.124573
15073.242188	-85.155853
15159.375000	-84.072441
15245.507813	-84.246422
15331.640625	-86.436073
15417.773438	-88.530472
15503.906250	-92.105171
15590.039063	-97.595383
15676.171875	-93.867393
15762.304688	-87.940292
15848.437500	-83.888771
15934.570313	-82.468437
16020.703125	-82.109528
16106.835938	-81.914734
16192.968750	-82.404259
16279.101563	-84.367683
16365.234375	-88.662743
16451.367188	-91.778961
16537.500000	-88.281708
16623.632813	-86.261864
16709.765625	-86.004097
16795.898438	-86.146294
16882.031250	-86.220436
16968.164063	-87.316360
17054.296875	-88.768700
17140.429688	-88.090950
17226.562500	-87.006241
17312.695313	-87.197235
17398.828125	-88.459503
17484.960938	-89.142708
17571.093750	-87.374588
17657.226563	-85.305412
17743.359375	-83.977356
17829.492188	-83.126122
17915.625000	-82.143532
18001.757813	-79.807632
18087.890625	-77.119934
18174.023438	-76.099670
18260.156250	-77.390083
18346.289063	-80.359558
18432.421875	-83.778610
18518.554688	-86.601204
18604.687500	-88.517395
18690.820313	-90.960464
18776.953125	-93.044632
18863.085938	-91.335960
18949.218750	-90.590385
19035.351563	-91.438713
19121.484375	-89.860367
19207.617188	-87.295593
19293.750000	-86.665680
19379.882813	-88.076012
19466.015625	-90.113968
19552.148438	-91.396484
19638.281250	-94.091011
19724.414063	-99.864243
19810.546875	-101.556686
19896.679688	-101.389130
19982.812500	-102.719452
20068.945313	-102.448624
20155.078125	-102.775749
20241.210938	-104.547829
20327.343750	-108.754951
20413.476563	-111.498672
20499.609375	-111.815063
20585.742188	-116.050789
20671.875000	-114.654068
20758.007813	-110.715088
20844.140625	-110.031456
20930.273438	-109.151978
21016.406250	-108.366592
21102.539063	-110.912865
21188.671875	-116.950951
21274.804688	-121.769279
21360.937500	-119.735237
21447.070313	-119.604652
21533.203125	-122.936012
21619.335938	-127.619431
21705.468750	-132.556747
21791.601563	-136.496368
21877.734375	-130.347397
21963.867188	-128.631775
