Frequency (Hz)	Level (dB)
86.132813	-54.861500
172.265625	-55.148602
258.398438	-56.231297
344.531250	-57.656582
430.664063	-58.517761
516.796875	-58.543755
602.929688	-58.915459
689.062500	-60.222813
775.195313	-61.868294
861.328125	-64.167496
947.460938	-70.105652
1033.593750	-68.421288
1119.726563	-64.174782
1205.859375	-62.069641
1291.992188	-62.177990
1378.125000	-66.219009
1464.257813	-64.532326
1550.390625	-64.163811
1636.523438	-66.254150
1722.656250	-66.152008
1808.789063	-65.032097
1894.921875	-60.757759
1981.054688	-54.820999
2067.187500	-53.560463
2153.320313	-57.001877
2239.453125	-64.321175
2325.585938	-63.862568
2411.718750	-60.138622
2497.851563	-58.393066
2583.984375	-57.478523
2670.117188	-56.672840
2756.250000	-56.322803
2842.382813	-56.273518
2928.515625	-58.635910
3014.648438	-64.108002
3100.781250	-63.834839
3186.914063	-62.994133
3273.046875	-63.128387
3359.179688	-62.431248
3445.312500	-60.700642
3531.445313	-61.612976
3617.578125	-65.684425
3703.710938	-66.290527
3789.843750	-66.730377
3875.976563	-67.511444
3962.109375	-59.760258
4048.242188	-57.491798
4134.375000	-56.932438
4220.507813	-58.479984
4306.640625	-59.019699
4392.773438	-55.785023
4478.906250	-55.454048
4565.039063	-59.477528
4651.171875	-64.455742
4737.304688	-67.457726
4823.437500	-67.936745
4909.570313	-67.172165
4995.703125	-65.410995
5081.835938	-63.258560
5167.968750	-63.083340
5254.101563	-65.011543
5340.234375	-62.123264
5426.367188	-59.769066
5512.500000	-61.163429
5598.632813	-63.871853
5684.765625	-65.402336
5770.898438	-69.239105
5857.031250	-74.518806
5943.164063	-60.260666
6029.296875	-58.702984
6115.429688	-66.066284
6201.562500	-70.938522
6287.695313	-70.417801
6373.828125	-70.702827
6459.960938	-72.099129
6546.093750	-74.945274
6632.226563	-76.437515
6718.359375	-74.888992
6804.492188	-70.267220
6890.625000	-66.518288
6976.757813	-65.320053
7062.890625	-66.600792
7149.023438	-67.850731
7235.156250	-66.690025
7321.289063	-66.632217
7407.421875	-63.790474
7493.554688	-60.935158
7579.687500	-60.305973
7665.820313	-60.553394
7751.953125	-60.281090
7838.085938	-61.327255
7924.218750	-62.549774
8010.351563	-62.275509
8096.484375	-63.024471
8182.617188	-64.608719
8268.750000	-65.467529
8354.882813	-67.150810
8441.015625	-70.408394
8527.148438	-72.070724
8613.281250	-70.007828
8699.414063	-68.422203
8785.546875	-67.928581
8871.679688	-67.455887
8957.812500	-66.690872
9043.945313	-67.046524
9130.078125	-70.210228
9216.210938	-73.855881
9302.343750	-72.770630
9388.476563	-74.439178
9474.609375	-79.219307
9560.742188	-80.019951
9646.875000	-75.251251
9733.007813	-73.818031
9819.140625	-75.524170
9905.273438	-77.931427
9991.406250	-80.204460
10077.539063	-82.402733
10163.671875	-81.951752
10249.804688	-81.663109
10335.937500	-79.899384
10422.070313	-79.786560
10508.203125	-84.862808
10594.335938	-80.116066
10680.468750	-76.673508
10766.601563	-76.975830
10852.734375	-78.783752
10938.867188	-80.588524
11025.000000	-82.166435
11111.132813	-81.716110
11197.265625	-80.083435
11283.398438	-78.116875
11369.531250	-77.187386
11455.664063	-78.221054
11541.796875	-77.253159
11627.929688	-78.726822
11714.062500	-78.578659
11800.195313	-73.404503
11886.328125	-70.983643
11972.460938	-69.638527
12058.593750	-68.735069
12144.726563	-68.699776
12230.859375	-69.649330
12316.992188	-72.287865
12403.125000	-75.483978
12489.257813	-77.298592
12575.390625	-77.712814
12661.523438	-79.957108
12747.656250	-85.765396
12833.789063	-91.037117
12919.921875	-83.211304
13006.054688	-78.879639
13092.187500	-76.757019
13178.320313	-76.588112
13264.453125	-77.905769
13350.585938	-79.147552
13436.718750	-79.758957
13522.851563	-81.490952
13608.984375	-84.747673
13695.117188	-85.874847
13781.250000	-86.427193
13867.382813	-87.824493
13953.515625	-86.529800
14039.648438	-84.664932
14125.781250	-83.508194
14211.914063	-86.048714
14298.046875	-88.757996
14384.179688	-83.726639
14470.312500	-81.780052
14556.445313	-81.204048
14642.578125	-81.241905
14728.710938	-81.126007
14814.843750	-81.295036
14900.976563	-81.523712
14987.109375	-83.364746
15073.242188	-91.544167
15159.375000	-84.084183
15245.507813	-78.311348
15331.640625	-78.071136
15417.773438	-80.576622
15503.906250	-81.629211
15590.039063	-81.882156
15676.171875	-84.138779
15762.304688	-85.009148
15848.437500	-85.468796
15934.570313	-89.325935
16020.703125	-94.104012
16106.835938	-93.163567
16192.968750	-88.812538
16279.101563	-88.786064
16365.234375	-94.376503
16451.367188	-94.383110
16537.500000	-87.635544
16623.632813	-86.477631
16709.765625	-87.988899
16795.898438	-87.829292
16882.031250	-86.999870
16968.164063	-87.308884
17054.296875	-88.555077
17140.429688	-91.584396
17226.562500	-98.194000
17312.695313	-92.341988
17398.828125	-88.098656
17484.960938	-86.724716
17571.093750	-87.053207
17657.226563	-88.288719
17743.359375	-87.350670
17829.492188	-86.344566
17915.625000	-86.460175
18001.757813	-86.860268
18087.890625	-86.037651
18174.023438	-84.746971
18260.156250	-85.025009
18346.289063	-86.357170
18432.421875	-87.812279
18518.554688	-91.071304
18604.687500	-99.640190
18690.820313	-96.621620
18776.953125	-90.522331
18863.085938	-88.595978
18949.218750	-87.615311
19035.351563	-86.404900
19121.484375	-85.804321
19207.617188	-85.982407
19293.750000	-86.828026
19379.882813	-89.374519
19466.015625	-94.944046
19552.148438	-100.710106
19638.281250	-99.043953
19724.414063	-96.462067
19810.546875	-97.193230
19896.679688	-101.518661
19982.812500	-101.659004
20068.945313	-102.775795
20155.078125	-112.168098
20241.210938	-108.705841
20327.343750	-106.453125
20413.476563	-109.006210
20499.609375	-111.307297
20585.742188	-109.174599
20671.875000	-107.450943
20758.007813	-108.710732
20844.140625	-109.534576
20930.273438	-108.323326
21016.406250	-108.074028
21102.539063	-109.144218
21188.671875	-111.440628
21274.804688	-115.725777
21360.937500	-122.020424
21447.070313	-118.041893
21533.203125	-117.868256
21619.335938	-121.621407
21705.468750	-129.774216
21791.601563	-142.988052
21877.734375	-135.156586
21963.867188	-133.368286
