Frequency (Hz)	Level (dB)
86.132813	-57.571739
172.265625	-57.353813
258.398438	-59.098206
344.531250	-60.985859
430.664063	-60.644306
516.796875	-60.115143
602.929688	-60.379589
689.062500	-61.956863
775.195313	-63.427166
861.328125	-63.173328
947.460938	-62.109753
1033.593750	-62.283150
1119.726563	-61.232292
1205.859375	-59.996140
1291.992188	-60.531132
1378.125000	-63.563427
1464.257813	-61.699028
1550.390625	-61.832771
1636.523438	-63.713676
1722.656250	-67.408218
1808.789063	-70.663475
1894.921875	-67.378189
1981.054688	-60.948147
2067.187500	-60.481956
2153.320313	-62.819118
2239.453125	-62.977432
2325.585938	-59.627068
2411.718750	-60.954395
2497.851563	-63.053177
2583.984375	-61.178417
2670.117188	-60.942837
2756.250000	-61.387882
2842.382813	-62.141453
2928.515625	-63.905270
3014.648438	-69.062637
3100.781250	-72.755508
3186.914063	-61.660168
3273.046875	-60.509132
3359.179688	-61.329094
3445.312500	-59.011673
3531.445313	-59.658211
3617.578125	-65.847046
3703.710938	-68.501740
3789.843750	-70.352180
3875.976563	-61.993431
3962.109375	-54.088097
4048.242188	-52.843815
4134.375000	-53.610233
4220.507813	-56.732281
4306.640625	-60.203789
4392.773438	-64.019363
4478.906250	-67.870499
4565.039063	-69.033501
4651.171875	-69.081688
4737.304688	-71.126251
4823.437500	-74.568024
4909.570313	-73.046997
4995.703125	-64.704346
5081.835938	-60.687950
5167.968750	-62.619247
5254.101563	-66.372528
5340.234375	-64.292282
5426.367188	-63.294392
5512.500000	-64.287270
5598.632813	-67.568016
5684.765625	-73.236877
5770.898438	-71.874855
5857.031250	-64.765701
5943.164063	-57.600578
6029.296875	-56.638947
6115.429688	-61.898773
6201.562500	-67.709930
6287.695313	-73.076408
6373.828125	-73.443291
6459.960938	-73.548866
6546.093750	-72.560295
6632.226563	-71.756889
6718.359375	-72.025833
6804.492188	-71.316124
6890.625000	-69.974243
6976.757813	-69.857407
7062.890625	-70.144104
7149.023438	-67.437370
7235.156250	-64.913361
7321.289063	-64.230774
7407.421875	-65.004158
7493.554688	-65.919456
7579.687500	-66.071793
7665.820313	-67.287987
7751.953125	-68.479248
7838.085938	-66.935768
7924.218750	-64.656586
8010.351563	-64.044342
8096.484375	-65.027718
8182.617188	-68.313080
8268.750000	-73.854713
8354.882813	-74.926575
8441.015625	-73.543251
8527.148438	-72.683815
8613.281250	-74.070175
8699.414063	-76.728096
8785.546875	-78.354012
8871.679688	-78.940323
8957.812500	-81.790001
9043.945313	-81.520683
9130.078125	-79.301559
9216.210938	-81.856712
9302.343750	-86.363724
9388.476563	-88.975426
9474.609375	-87.173363
9560.742188	-79.895142
9646.875000	-77.809265
9733.007813	-79.527962
9819.140625	-82.679817
9905.273438	-84.215179
9991.406250	-83.839592
10077.539063	-84.331108
10163.671875	-85.415504
10249.804688	-88.456917
10335.937500	-90.658867
10422.070313	-87.388741
10508.203125	-84.541519
10594.335938	-80.797523
10680.468750	-78.714088
10766.601563	-78.840637
10852.734375	-79.543015
10938.867188	-80.201035
11025.000000	-82.465439
11111.132813	-86.107925
11197.265625	-86.680359
11283.398438	-93.841835
11369.531250	-84.258003
11455.664063	-76.748398
11541.796875	-74.485428
11627.929688	-77.479462
11714.062500	-80.010918
11800.195313	-78.144501
11886.328125	-78.254234
11972.460938	-79.075989
12058.593750	-78.851280
12144.726563	-77.178452
12230.859375	-76.742546
12316.992188	-79.565903
12403.125000	-78.996017
12489.257813	-74.792496
12575.390625	-72.141121
12661.523438	-71.998375
12747.656250	-73.923431
12833.789063	-76.023941
12919.921875	-77.581108
13006.054688	-78.769310
13092.187500	-79.510689
13178.320313	-81.236748
13264.453125	-84.142548
13350.585938	-87.929321
13436.718750	-89.034157
13522.851563	-86.107201
13608.984375	-85.516365
13695.117188	-87.076736
13781.250000	-86.015747
13867.382813	-84.309723
13953.515625	-84.404480
14039.648438	-83.269913
14125.781250	-80.987503
14211.914063	-79.718422
14298.046875	-79.498192
14384.179688	-79.873169
14470.312500	-79.388397
14556.445313	-79.349976
14642.578125	-80.997536
14728.710938	-81.475723
14814.843750	-84.078041
14900.976563	-91.347466
14987.109375	-92.575333
15073.242188	-97.251503
15159.375000	-83.832970
15245.507813	-78.648079
15331.640625	-78.886147
15417.773438	-83.317787
15503.906250	-83.976517
15590.039063	-82.711868
15676.171875	-81.182304
15762.304688	-79.821030
15848.437500	-80.395424
15934.570313	-83.152519
16020.703125	-87.293793
16106.835938	-89.690536
16192.968750	-94.856949
16279.101563	-91.041039
16365.234375	-85.382179
16451.367188	-81.659042
16537.500000	-78.576622
16623.632813	-77.885506
16709.765625	-79.846176
16795.898438	-83.415176
16882.031250	-87.614723
16968.164063	-88.397873
17054.296875	-84.732674
17140.429688	-83.147324
17226.562500	-84.054237
17312.695313	-86.170349
17398.828125	-86.817970
17484.960938	-87.216202
17571.093750	-89.547508
17657.226563	-91.929810
17743.359375	-92.168488
17829.492188	-92.409698
17915.625000	-97.271706
18001.757813	-93.700905
18087.890625	-86.097855
18174.023438	-83.495476
18260.156250	-84.289993
18346.289063	-85.306061
18432.421875	-84.752518
18518.554688	-85.738747
18604.687500	-86.910515
18690.820313	-86.708008
18776.953125	-88.337883
18863.085938	-91.588783
18949.218750	-90.707085
19035.351563	-88.834587
19121.484375	-88.970055
19207.617188	-89.727081
19293.750000	-89.998100
19379.882813	-91.117043
19466.015625	-94.308212
19552.148438	-97.232254
19638.281250	-94.171974
19724.414063	-91.214432
19810.546875	-89.415779
19896.679688	-89.138123
19982.812500	-91.121078
20068.945313	-94.059250
20155.078125	-95.296135
20241.210938	-96.705978
20327.343750	-99.694748
20413.476563	-103.762581
20499.609375	-108.293091
20585.742188	-116.989273
20671.875000	-111.197815
20758.007813	-108.404472
20844.140625	-108.630524
20930.273438	-111.149406
21016.406250	-114.781387
21102.539063	-118.952240
21188.671875	-118.184250
21274.804688	-119.966644
21360.937500	-132.178391
21447.070313	-122.046333
21533.203125	-123.390617
21619.335938	-129.885315
21705.468750	-129.926636
21791.601563	-129.028198
21877.734375	-130.087952
21963.867188	-134.639923
