Frequency (Hz)	Level (dB)
86.132813	-61.418480
172.265625	-57.379814
258.398438	-57.855652
344.531250	-61.037880
430.664063	-63.698467
516.796875	-64.739632
602.929688	-65.496231
689.062500	-67.024017
775.195313	-68.795197
861.328125	-71.120361
947.460938	-74.760307
1033.593750	-77.617043
1119.726563	-71.862373
1205.859375	-69.527390
1291.992188	-68.332634
1378.125000	-70.949722
1464.257813	-65.702911
1550.390625	-63.888245
1636.523438	-66.027275
1722.656250	-70.426537
1808.789063	-81.259590
1894.921875	-65.623283
1981.054688	-60.495071
2067.187500	-63.878922
2153.320313	-67.846130
2239.453125	-73.494629
2325.585938	-77.347961
2411.718750	-73.332596
2497.851563	-68.844345
2583.984375	-66.946770
2670.117188	-66.798332
2756.250000	-71.580025
2842.382813	-73.406120
2928.515625	-72.194572
3014.648438	-77.611786
3100.781250	-71.056206
3186.914063	-66.185036
3273.046875	-66.073372
3359.179688	-67.869766
3445.312500	-64.058228
3531.445313	-63.176163
3617.578125	-71.600700
3703.710938	-71.930672
3789.843750	-64.576408
3875.976563	-60.015018
3962.109375	-58.307194
4048.242188	-61.332291
4134.375000	-64.608109
4220.507813	-67.518738
4306.640625	-69.137894
4392.773438	-68.099030
4478.906250	-70.984688
4565.039063	-78.440445
4651.171875	-77.861404
4737.304688	-86.021416
4823.437500	-77.634193
4909.570313	-72.032387
4995.703125	-67.313614
5081.835938	-65.035255
5167.968750	-65.709633
5254.101563	-67.728996
5340.234375	-66.491478
5426.367188	-65.607368
5512.500000	-70.523010
5598.632813	-76.370964
5684.765625	-71.284706
5770.898438	-71.333740
5857.031250	-68.321815
5943.164063	-60.826294
6029.296875	-60.027557
6115.429688	-65.079475
6201.562500	-74.699165
6287.695313	-86.094482
6373.828125	-80.960953
6459.960938	-82.234177
6546.093750	-83.149780
6632.226563	-84.822975
6718.359375	-88.531235
6804.492188	-81.180397
6890.625000	-79.094643
6976.757813	-81.295418
7062.890625	-80.073158
7149.023438	-77.234688
7235.156250	-75.833557
7321.289063	-74.634399
7407.421875	-78.779984
7493.554688	-75.552422
7579.687500	-69.487259
7665.820313	-67.597542
7751.953125	-69.302475
7838.085938	-68.791412
7924.218750	-69.774414
8010.351563	-77.811310
8096.484375	-82.056419
8182.617188	-82.373619
8268.750000	-83.912270
8354.882813	-80.667290
8441.015625	-83.177971
8527.148438	-82.667297
8613.281250	-79.224640
8699.414063	-80.256020
8785.546875	-87.021103
8871.679688	-93.082329
8957.812500	-84.533615
9043.945313	-83.935333
9130.078125	-82.208244
9216.210938	-79.442818
9302.343750	-79.787170
9388.476563	-84.086487
9474.609375	-90.705658
9560.742188	-85.089706
9646.875000	-82.842758
9733.007813	-84.619545
9819.140625	-86.838440
9905.273438	-85.308174
9991.406250	-84.992714
10077.539063	-88.005020
10163.671875	-87.592537
10249.804688	-83.409225
10335.937500	-80.074524
10422.070313	-78.471207
10508.203125	-78.443932
10594.335938	-77.983330
10680.468750	-77.327934
10766.601563	-78.441910
10852.734375	-80.747055
10938.867188	-81.402977
11025.000000	-82.037910
11111.132813	-84.910309
11197.265625	-89.448425
11283.398438	-86.703224
11369.531250	-82.936455
11455.664063	-81.515083
11541.796875	-79.376930
11627.929688	-80.154312
11714.062500	-79.267532
11800.195313	-77.459190
11886.328125	-77.970222
11972.460938	-77.714149
12058.593750	-81.596558
12144.726563	-74.153183
12230.859375	-70.934204
12316.992188	-73.114830
12403.125000	-76.828590
12489.257813	-80.406487
12575.390625	-83.325691
12661.523438	-81.758919
12747.656250	-80.890343
12833.789063	-81.522179
12919.921875	-82.861137
13006.054688	-84.531105
13092.187500	-89.109627
13178.320313	-89.247070
13264.453125	-85.505638
13350.585938	-86.778740
13436.718750	-92.732361
13522.851563	-94.448341
13608.984375	-88.331566
13695.117188	-88.653458
13781.250000	-91.727081
13867.382813	-93.014008
13953.515625	-91.126656
14039.648438	-89.639175
14125.781250	-88.277672
14211.914063	-88.372902
14298.046875	-87.989693
14384.179688	-86.168991
14470.312500	-85.064644
14556.445313	-83.518044
14642.578125	-83.387650
14728.710938	-86.645416
14814.843750	-90.990074
14900.976563	-92.372360
14987.109375	-100.426132
15073.242188	-93.969604
15159.375000	-89.709267
15245.507813	-89.140053
15331.640625	-88.696167
15417.773438	-88.414970
15503.906250	-88.839828
15590.039063	-87.151695
15676.171875	-84.684532
15762.304688	-82.737953
15848.437500	-82.379585
15934.570313	-84.198761
16020.703125	-87.279320
16106.835938	-90.498619
16192.968750	-93.224915
16279.101563	-95.599907
16365.234375	-98.915977
16451.367188	-102.372192
16537.500000	-106.221237
16623.632813	-110.379761
16709.765625	-111.661049
16795.898438	-110.056831
16882.031250	-106.851357
16968.164063	-105.949081
17054.296875	-106.305809
17140.429688	-106.610954
17226.562500	-107.459923
17312.695313	-109.057877
17398.828125	-110.163246
17484.960938	-110.451401
17571.093750	-110.996849
17657.226563	-111.599968
17743.359375	-111.069794
17829.492188	-110.227036
17915.625000	-109.508774
18001.757813	-107.423477
18087.890625	-103.676582
18174.023438	-101.912018
18260.156250	-102.794121
18346.289063	-105.123466
18432.421875	-107.415398
18518.554688	-109.380699
18604.687500	-111.313095
18690.820313	-114.291779
18776.953125	-110.581299
18863.085938	-105.664757
18949.218750	-103.608940
19035.351563	-103.216599
19121.484375	-103.722427
19207.617188	-105.501404
19293.750000	-108.482681
19379.882813	-112.045647
19466.015625	-117.345505
19552.148438	-125.722885
19638.281250	-129.442444
19724.414063	-129.622131
19810.546875	-130.544403
19896.679688	-129.710037
19982.812500	-128.394287
20068.945313	-128.238876
20155.078125	-128.808319
20241.210938	-130.966599
20327.343750	-131.475632
20413.476563	-129.456192
20499.609375	-130.889175
20585.742188	-131.891586
20671.875000	-132.173309
20758.007813	-134.792801
20844.140625	-138.834427
20930.273438	-141.504883
21016.406250	-141.313232
21102.539063	-141.717529
21188.671875	-144.512451
21274.804688	-145.588943
21360.937500	-146.104767
21447.070313	-147.473801
21533.203125	-149.433533
21619.335938	-149.193497
21705.468750	-150.355560
21791.601563	-153.589874
21877.734375	-155.624084
21963.867188	-156.962357
