Frequency (Hz)	Level (dB)
86.132813	-47.332947
172.265625	-49.005035
258.398438	-53.554939
344.531250	-56.499283
430.664063	-57.696308
516.796875	-58.246498
602.929688	-59.112663
689.062500	-61.194550
775.195313	-62.517380
861.328125	-63.272556
947.460938	-66.307610
1033.593750	-64.717407
1119.726563	-62.110485
1205.859375	-60.993721
1291.992188	-61.908092
1378.125000	-65.943436
1464.257813	-66.302628
1550.390625	-64.856789
1636.523438	-66.596176
1722.656250	-64.853409
1808.789063	-61.320160
1894.921875	-62.340740
1981.054688	-60.547600
2067.187500	-62.915886
2153.320313	-68.993896
2239.453125	-71.232201
2325.585938	-64.521851
2411.718750	-60.193718
2497.851563	-59.779129
2583.984375	-59.572506
2670.117188	-60.235874
2756.250000	-64.261856
2842.382813	-68.359612
2928.515625	-68.584549
3014.648438	-70.099464
3100.781250	-67.196320
3186.914063	-61.059570
3273.046875	-56.687035
3359.179688	-58.848858
3445.312500	-60.989040
3531.445313	-62.953865
3617.578125	-69.548920
3703.710938	-67.339981
3789.843750	-64.750084
3875.976563	-59.772057
3962.109375	-55.240376
4048.242188	-54.296200
4134.375000	-56.665524
4220.507813	-61.699589
4306.640625	-64.697540
4392.773438	-64.941658
4478.906250	-70.620056
4565.039063	-68.987915
4651.171875	-67.267593
4737.304688	-71.357758
4823.437500	-69.704056
4909.570313	-70.729210
4995.703125	-70.759407
5081.835938	-64.683800
5167.968750	-61.514336
5254.101563	-62.065865
5340.234375	-60.640743
5426.367188	-61.117577
5512.500000	-63.352489
5598.632813	-59.191238
5684.765625	-57.662918
5770.898438	-54.935802
5857.031250	-48.422596
5943.164063	-40.491184
6029.296875	-40.303513
6115.429688	-48.778709
6201.562500	-55.534904
6287.695313	-60.655811
6373.828125	-65.375015
6459.960938	-67.066765
6546.093750	-66.999657
6632.226563	-69.267990
6718.359375	-68.035484
6804.492188	-69.774559
6890.625000	-72.117783
6976.757813	-75.943703
7062.890625	-75.961426
7149.023438	-72.049004
7235.156250	-70.166862
7321.289063	-73.439964
7407.421875	-76.481781
7493.554688	-75.042206
7579.687500	-77.713623
7665.820313	-75.414497
7751.953125	-73.167725
7838.085938	-70.827431
7924.218750	-71.363670
8010.351563	-73.866783
8096.484375	-76.999207
8182.617188	-73.911110
8268.750000	-70.675247
8354.882813	-72.630318
8441.015625	-74.225342
8527.148438	-76.618057
8613.281250	-81.541084
8699.414063	-82.734184
8785.546875	-79.288055
8871.679688	-78.851517
8957.812500	-82.626831
9043.945313	-78.959892
9130.078125	-76.770119
9216.210938	-74.697891
9302.343750	-74.249115
9388.476563	-81.092804
9474.609375	-79.464378
9560.742188	-77.325714
9646.875000	-78.848816
9733.007813	-75.446808
9819.140625	-75.283562
9905.273438	-77.572037
9991.406250	-80.653778
10077.539063	-82.075111
10163.671875	-80.945015
10249.804688	-81.018562
10335.937500	-78.330994
10422.070313	-78.247032
10508.203125	-79.005150
10594.335938	-75.684692
10680.468750	-72.399803
10766.601563	-72.311882
10852.734375	-75.051956
10938.867188	-79.961098
11025.000000	-82.776833
11111.132813	-84.840858
11197.265625	-77.888863
11283.398438	-75.096092
11369.531250	-78.355309
11455.664063	-85.821556
11541.796875	-85.338432
11627.929688	-83.879341
11714.062500	-81.482941
11800.195313	-73.377579
11886.328125	-71.729851
11972.460938	-74.618454
12058.593750	-77.468483
12144.726563	-71.222893
12230.859375	-71.913788
12316.992188	-80.038902
12403.125000	-86.255981
12489.257813	-81.633514
12575.390625	-76.462807
12661.523438	-75.978867
12747.656250	-79.629768
12833.789063	-84.631592
12919.921875	-88.676567
13006.054688	-93.007057
13092.187500	-97.901405
13178.320313	-92.372086
13264.453125	-95.073593
13350.585938	-99.960381
13436.718750	-95.934425
13522.851563	-99.347687
13608.984375	-100.744751
13695.117188	-100.379463
13781.250000	-101.966583
13867.382813	-100.906731
13953.515625	-97.038239
14039.648438	-91.652351
14125.781250	-89.922287
14211.914063	-93.076332
14298.046875	-94.365089
14384.179688	-93.623352
14470.312500	-90.667442
14556.445313	-91.005524
14642.578125	-96.273163
14728.710938	-92.326424
14814.843750	-88.132187
14900.976563	-83.077438
14987.109375	-81.773453
15073.242188	-83.548080
15159.375000	-87.702194
15245.507813	-91.363861
15331.640625	-93.941124
15417.773438	-97.371376
15503.906250	-90.998322
15590.039063	-87.372116
15676.171875	-87.985443
15762.304688	-90.543709
15848.437500	-88.903641
15934.570313	-86.076050
16020.703125	-89.224632
16106.835938	-94.320946
16192.968750	-95.080345
16279.101563	-94.683273
16365.234375	-98.738930
16451.367188	-97.139656
16537.500000	-93.103714
16623.632813	-96.480728
16709.765625	-94.346245
16795.898438	-90.704781
16882.031250	-92.330750
16968.164063	-100.517441
17054.296875	-97.248344
17140.429688	-96.416069
17226.562500	-96.870682
17312.695313	-97.760612
17398.828125	-99.337318
17484.960938	-97.521759
17571.093750	-101.440598
17657.226563	-99.099548
17743.359375	-94.678757
17829.492188	-94.433670
17915.625000	-94.409676
18001.757813	-88.253021
18087.890625	-84.491463
18174.023438	-83.876869
18260.156250	-85.194115
18346.289063	-85.415031
18432.421875	-87.950714
18518.554688	-93.729965
18604.687500	-96.628029
18690.820313	-92.310226
18776.953125	-90.346390
18863.085938	-88.356140
18949.218750	-87.552773
19035.351563	-88.375328
19121.484375	-92.555275
19207.617188	-95.542824
19293.750000	-94.887688
19379.882813	-94.127144
19466.015625	-99.299461
19552.148438	-93.632523
19638.281250	-93.701736
19724.414063	-95.846855
19810.546875	-98.253517
19896.679688	-99.714005
19982.812500	-98.854317
20068.945313	-101.032990
20155.078125	-108.277000
20241.210938	-107.250366
20327.343750	-109.047089
20413.476563	-110.680870
20499.609375	-112.134445
20585.742188	-109.757240
20671.875000	-107.732613
20758.007813	-112.519371
20844.140625	-115.523109
20930.273438	-116.385544
21016.406250	-120.746590
21102.539063	-117.127975
21188.671875	-113.607307
21274.804688	-114.678017
21360.937500	-123.139580
21447.070313	-128.409454
21533.203125	-131.877396
21619.335938	-127.859604
21705.468750	-125.075493
21791.601563	-128.996490
21877.734375	-133.227707
21963.867188	-129.098022
