Frequency (Hz)	Level (dB)
86.132813	-54.239876
172.265625	-55.225597
258.398438	-57.844131
344.531250	-60.585831
430.664063	-60.783722
516.796875	-59.884258
602.929688	-59.893002
689.062500	-61.443127
775.195313	-63.251263
861.328125	-65.693016
947.460938	-65.735176
1033.593750	-66.399818
1119.726563	-64.950928
1205.859375	-61.326622
1291.992188	-59.429447
1378.125000	-62.510292
1464.257813	-58.121883
1550.390625	-57.921177
1636.523438	-65.757271
1722.656250	-69.093483
1808.789063	-61.710732
1894.921875	-61.440155
1981.054688	-53.382530
2067.187500	-51.069687
2153.320313	-54.184078
2239.453125	-65.547691
2325.585938	-63.619942
2411.718750	-58.899471
2497.851563	-56.808022
2583.984375	-57.437984
2670.117188	-55.926342
2756.250000	-55.317253
2842.382813	-55.194519
2928.515625	-56.869843
3014.648438	-60.744423
3100.781250	-61.606991
3186.914063	-59.801582
3273.046875	-60.054329
3359.179688	-58.811237
3445.312500	-54.972847
3531.445313	-56.131535
3617.578125	-62.092884
3703.710938	-67.551338
3789.843750	-64.064308
3875.976563	-61.190750
3962.109375	-58.146210
4048.242188	-55.229351
4134.375000	-55.697678
4220.507813	-54.266983
4306.640625	-56.706928
4392.773438	-51.558765
4478.906250	-48.874527
4565.039063	-53.194389
4651.171875	-59.368462
4737.304688	-63.274494
4823.437500	-66.439995
4909.570313	-60.142124
4995.703125	-55.782104
5081.835938	-53.654938
5167.968750	-53.345955
5254.101563	-54.093559
5340.234375	-53.263374
5426.367188	-50.176113
5512.500000	-52.255573
5598.632813	-61.627522
5684.765625	-62.200748
5770.898438	-61.427849
5857.031250	-60.796223
5943.164063	-51.076286
6029.296875	-49.252174
6115.429688	-56.106361
6201.562500	-63.277409
6287.695313	-66.807343
6373.828125	-66.278656
6459.960938	-64.928711
6546.093750	-69.449135
6632.226563	-76.055771
6718.359375	-81.386879
6804.492188	-80.041260
6890.625000	-74.069244
6976.757813	-74.370903
7062.890625	-81.309189
7149.023438	-78.131638
7235.156250	-75.479919
7321.289063	-74.476372
7407.421875	-72.715080
7493.554688	-72.573204
7579.687500	-67.793541
7665.820313	-64.494751
7751.953125	-65.540932
7838.085938	-67.519363
7924.218750	-69.990440
8010.351563	-67.205521
8096.484375	-67.614052
8182.617188	-65.274162
8268.750000	-62.747452
8354.882813	-62.325123
8441.015625	-65.729736
8527.148438	-68.095642
8613.281250	-66.249748
8699.414063	-65.782982
8785.546875	-65.968590
8871.679688	-67.290375
8957.812500	-69.502289
9043.945313	-67.568512
9130.078125	-70.434845
9216.210938	-70.585526
9302.343750	-63.742794
9388.476563	-65.080132
9474.609375	-68.254654
9560.742188	-71.860130
9646.875000	-68.764107
9733.007813	-66.812271
9819.140625	-68.256302
9905.273438	-72.271042
9991.406250	-77.802383
10077.539063	-82.965004
10163.671875	-78.790100
10249.804688	-80.546455
10335.937500	-86.605492
10422.070313	-79.662651
10508.203125	-77.118477
10594.335938	-71.784683
10680.468750	-67.080933
10766.601563	-65.550293
10852.734375	-67.715508
10938.867188	-74.653244
11025.000000	-81.395546
11111.132813	-77.077011
11197.265625	-79.220428
11283.398438	-75.408829
11369.531250	-76.449295
11455.664063	-78.116180
11541.796875	-72.419098
11627.929688	-69.161713
11714.062500	-68.875153
11800.195313	-71.231918
11886.328125	-76.254936
11972.460938	-73.281898
12058.593750	-70.074623
12144.726563	-67.471245
12230.859375	-67.784256
12316.992188	-71.840317
12403.125000	-75.903320
12489.257813	-76.478569
12575.390625	-75.923691
12661.523438	-77.485580
12747.656250	-78.610641
12833.789063	-80.006592
12919.921875	-83.901024
13006.054688	-92.306824
13092.187500	-83.652321
13178.320313	-79.359329
13264.453125	-78.211876
13350.585938	-76.604454
13436.718750	-75.290871
13522.851563	-75.760948
13608.984375	-77.596840
13695.117188	-80.437187
13781.250000	-86.645103
13867.382813	-86.142105
13953.515625	-82.823067
14039.648438	-84.620682
14125.781250	-87.129486
14211.914063	-90.081390
14298.046875	-84.440987
14384.179688	-85.955498
14470.312500	-86.657913
14556.445313	-80.277046
14642.578125	-74.545494
14728.710938	-73.868797
14814.843750	-79.027435
14900.976563	-88.797966
14987.109375	-89.475830
15073.242188	-79.465172
15159.375000	-74.847908
15245.507813	-74.121719
15331.640625	-75.469521
15417.773438	-78.366096
15503.906250	-84.179619
15590.039063	-92.075050
15676.171875	-88.454636
15762.304688	-84.255203
15848.437500	-86.334297
15934.570313	-94.012932
16020.703125	-91.211540
16106.835938	-85.542595
16192.968750	-84.288399
16279.101563	-88.085892
16365.234375	-96.465538
16451.367188	-95.853020
16537.500000	-89.978615
16623.632813	-88.086426
16709.765625	-90.336533
16795.898438	-94.411903
16882.031250	-100.896965
16968.164063	-99.798088
17054.296875	-100.002296
17140.429688	-92.270256
17226.562500	-89.209198
17312.695313	-86.338570
17398.828125	-84.473442
17484.960938	-84.774284
17571.093750	-86.302559
17657.226563	-90.234390
17743.359375	-92.575180
17829.492188	-86.281876
17915.625000	-88.239601
18001.757813	-86.885941
18087.890625	-81.755379
18174.023438	-80.379204
18260.156250	-84.527069
18346.289063	-88.914413
18432.421875	-86.558678
18518.554688	-84.063400
18604.687500	-84.201591
18690.820313	-86.425514
18776.953125	-86.084862
18863.085938	-86.405365
18949.218750	-86.306976
19035.351563	-84.448349
19121.484375	-83.671196
19207.617188	-84.070969
19293.750000	-85.093727
19379.882813	-89.157921
19466.015625	-89.912674
19552.148438	-86.511826
19638.281250	-84.633965
19724.414063	-83.929619
19810.546875	-85.801193
19896.679688	-90.715935
19982.812500	-99.702965
20068.945313	-103.939522
20155.078125	-101.831062
20241.210938	-103.886864
20327.343750	-103.596397
20413.476563	-105.467743
20499.609375	-110.763527
20585.742188	-109.659966
20671.875000	-109.934303
20758.007813	-117.136185
20844.140625	-110.974503
20930.273438	-112.169189
21016.406250	-119.379646
21102.539063	-120.294510
21188.671875	-115.935890
21274.804688	-115.165871
21360.937500	-119.235062
21447.070313	-124.838448
21533.203125	-126.197060
21619.335938	-129.509476
21705.468750	-131.278244
21791.601563	-134.047943
21877.734375	-136.963440
21963.867188	-129.860138
