Frequency (Hz)	Level (dB)
86.132813	-54.481503
172.265625	-56.230534
258.398438	-58.049664
344.531250	-59.472363
430.664063	-60.352505
516.796875	-60.282806
602.929688	-60.774338
689.062500	-62.009731
775.195313	-63.110317
861.328125	-65.151886
947.460938	-66.201958
1033.593750	-66.361290
1119.726563	-65.639648
1205.859375	-62.842228
1291.992188	-60.835167
1378.125000	-58.216763
1464.257813	-56.500565
1550.390625	-62.193405
1636.523438	-62.552555
1722.656250	-61.539650
1808.789063	-59.251923
1894.921875	-60.700798
1981.054688	-59.459770
2067.187500	-57.464420
2153.320313	-59.546391
2239.453125	-63.815533
2325.585938	-63.233704
2411.718750	-61.534824
2497.851563	-60.449928
2583.984375	-60.847565
2670.117188	-61.366467
2756.250000	-62.357357
2842.382813	-66.613991
2928.515625	-66.789162
3014.648438	-65.943932
3100.781250	-62.968315
3186.914063	-59.570366
3273.046875	-59.537964
3359.179688	-59.082989
3445.312500	-55.277603
3531.445313	-56.021999
3617.578125	-64.331116
3703.710938	-70.699142
3789.843750	-71.326073
3875.976563	-66.020035
3962.109375	-63.725590
4048.242188	-66.424751
4134.375000	-68.670059
4220.507813	-68.022713
4306.640625	-64.296577
4392.773438	-58.804970
4478.906250	-58.669449
4565.039063	-64.319168
4651.171875	-67.202438
4737.304688	-66.762749
4823.437500	-65.186989
4909.570313	-66.815384
4995.703125	-64.869530
5081.835938	-58.486088
5167.968750	-55.116596
5254.101563	-57.165585
5340.234375	-55.244450
5426.367188	-51.870476
5512.500000	-53.973660
5598.632813	-57.975887
5684.765625	-62.976692
5770.898438	-67.943977
5857.031250	-58.570080
5943.164063	-49.301304
6029.296875	-48.254547
6115.429688	-55.406391
6201.562500	-60.972458
6287.695313	-63.862282
6373.828125	-63.801651
6459.960938	-65.400490
6546.093750	-68.055801
6632.226563	-70.081100
6718.359375	-71.360977
6804.492188	-69.760193
6890.625000	-67.404678
6976.757813	-68.946701
7062.890625	-69.627647
7149.023438	-70.556229
7235.156250	-72.762512
7321.289063	-75.629822
7407.421875	-77.990273
7493.554688	-79.305710
7579.687500	-75.041100
7665.820313	-75.538895
7751.953125	-74.270439
7838.085938	-74.612991
7924.218750	-74.514671
8010.351563	-74.339394
8096.484375	-72.791267
8182.617188	-71.731056
8268.750000	-69.286354
8354.882813	-69.595352
8441.015625	-72.112167
8527.148438	-78.026001
8613.281250	-79.784294
8699.414063	-80.123756
8785.546875	-79.572891
8871.679688	-73.812057
8957.812500	-73.287880
9043.945313	-75.979912
9130.078125	-75.524307
9216.210938	-70.691536
9302.343750	-68.050781
9388.476563	-71.445305
9474.609375	-72.665260
9560.742188	-69.847740
9646.875000	-66.597809
9733.007813	-65.539391
9819.140625	-66.851196
9905.273438	-70.363617
9991.406250	-73.629288
10077.539063	-71.891106
10163.671875	-69.483452
10249.804688	-68.450890
10335.937500	-67.882050
10422.070313	-67.141945
10508.203125	-69.550499
10594.335938	-72.802025
10680.468750	-70.855576
10766.601563	-70.543083
10852.734375	-71.039116
10938.867188	-73.308624
11025.000000	-76.434708
11111.132813	-76.770195
11197.265625	-75.309456
11283.398438	-75.581139
11369.531250	-77.894447
11455.664063	-81.691055
11541.796875	-83.732666
11627.929688	-79.057716
11714.062500	-73.551872
11800.195313	-73.477196
11886.328125	-73.119751
11972.460938	-71.771423
12058.593750	-71.009399
12144.726563	-66.662560
12230.859375	-65.800224
12316.992188	-69.629990
12403.125000	-72.068924
12489.257813	-72.621346
12575.390625	-71.517433
12661.523438	-73.002113
12747.656250	-76.310287
12833.789063	-79.996361
12919.921875	-85.111588
13006.054688	-87.307838
13092.187500	-84.197693
13178.320313	-82.772141
13264.453125	-81.344559
13350.585938	-79.658615
13436.718750	-79.384941
13522.851563	-79.862396
13608.984375	-82.592575
13695.117188	-83.770485
13781.250000	-84.359306
13867.382813	-83.677467
13953.515625	-83.882927
14039.648438	-83.318161
14125.781250	-82.873657
14211.914063	-80.937004
14298.046875	-79.609108
14384.179688	-79.767967
14470.312500	-79.063660
14556.445313	-78.538162
14642.578125	-78.906166
14728.710938	-78.790886
14814.843750	-80.087456
14900.976563	-82.004311
14987.109375	-83.697830
15073.242188	-85.787544
15159.375000	-84.810989
15245.507813	-81.538071
15331.640625	-80.059189
15417.773438	-81.127502
15503.906250	-82.883018
15590.039063	-84.359535
15676.171875	-85.382233
15762.304688	-86.121681
15848.437500	-87.806534
15934.570313	-92.413078
16020.703125	-93.193367
16106.835938	-89.332809
16192.968750	-86.634789
16279.101563	-86.930542
16365.234375	-89.680115
16451.367188	-89.944618
16537.500000	-93.492897
16623.632813	-94.832634
16709.765625	-90.399094
16795.898438	-90.042938
16882.031250	-92.647408
16968.164063	-93.233192
17054.296875	-93.955383
17140.429688	-93.911209
17226.562500	-88.628075
17312.695313	-85.852325
17398.828125	-85.046104
17484.960938	-85.891594
17571.093750	-87.910210
17657.226563	-89.113106
17743.359375	-90.067802
17829.492188	-88.849365
17915.625000	-86.942268
18001.757813	-85.894783
18087.890625	-84.010391
18174.023438	-81.165329
18260.156250	-81.573006
18346.289063	-85.160164
18432.421875	-87.613052
18518.554688	-86.486504
18604.687500	-85.616020
18690.820313	-85.589745
18776.953125	-85.136147
18863.085938	-83.995186
18949.218750	-82.634392
19035.351563	-81.427917
19121.484375	-81.114807
19207.617188	-81.390602
19293.750000	-81.549225
19379.882813	-82.776237
19466.015625	-85.778130
19552.148438	-89.458649
19638.281250	-91.064247
19724.414063	-90.628960
19810.546875	-91.903107
19896.679688	-93.781433
19982.812500	-99.983971
20068.945313	-104.170746
20155.078125	-102.323120
20241.210938	-103.889328
20327.343750	-104.578773
20413.476563	-104.115219
20499.609375	-103.369934
20585.742188	-103.565552
20671.875000	-103.263664
20758.007813	-103.202339
20844.140625	-104.050552
20930.273438	-106.884132
21016.406250	-110.501602
21102.539063	-110.932259
21188.671875	-108.226425
21274.804688	-108.118454
21360.937500	-110.900482
21447.070313	-114.749977
21533.203125	-117.714546
21619.335938	-123.829887
21705.468750	-127.446472
21791.601563	-133.372498
21877.734375	-128.790710
21963.867188	-126.691780
