Frequency (Hz)	Level (dB)
86.132813	-50.261295
172.265625	-53.542999
258.398438	-57.361187
344.531250	-59.138466
430.664063	-59.370300
516.796875	-60.154682
602.929688	-61.152599
689.062500	-62.144646
775.195313	-63.087379
861.328125	-64.795113
947.460938	-63.360210
1033.593750	-59.604759
1119.726563	-59.914627
1205.859375	-59.641548
1291.992188	-58.801735
1378.125000	-59.910187
1464.257813	-61.754799
1550.390625	-63.307724
1636.523438	-65.548393
1722.656250	-59.874958
1808.789063	-56.844070
1894.921875	-59.195953
1981.054688	-62.101116
2067.187500	-59.534790
2153.320313	-55.741413
2239.453125	-50.486595
2325.585938	-54.658131
2411.718750	-60.541931
2497.851563	-58.456181
2583.984375	-54.511566
2670.117188	-57.909321
2756.250000	-58.412128
2842.382813	-57.768799
2928.515625	-60.529655
3014.648438	-63.085266
3100.781250	-64.124428
3186.914063	-62.337227
3273.046875	-64.002869
3359.179688	-66.548241
3445.312500	-66.778130
3531.445313	-62.752930
3617.578125	-54.015186
3703.710938	-49.275204
3789.843750	-53.401600
3875.976563	-59.029125
3962.109375	-52.282528
4048.242188	-51.017197
4134.375000	-54.991600
4220.507813	-47.142937
4306.640625	-44.650696
4392.773438	-50.056725
4478.906250	-53.190655
4565.039063	-53.418652
4651.171875	-54.453587
4737.304688	-55.163921
4823.437500	-53.182171
4909.570313	-47.895237
4995.703125	-46.575264
5081.835938	-45.011837
5167.968750	-38.646049
5254.101563	-39.626011
5340.234375	-46.633137
5426.367188	-51.303593
5512.500000	-55.032604
5598.632813	-55.911091
5684.765625	-57.154205
5770.898438	-59.846817
5857.031250	-62.294090
5943.164063	-64.379631
6029.296875	-63.628849
6115.429688	-59.844570
6201.562500	-58.548809
6287.695313	-50.790333
6373.828125	-45.658257
6459.960938	-48.310284
6546.093750	-53.622826
6632.226563	-55.242031
6718.359375	-55.977295
6804.492188	-55.843941
6890.625000	-56.131569
6976.757813	-56.815239
7062.890625	-55.843742
7149.023438	-55.795151
7235.156250	-55.883820
7321.289063	-56.181183
7407.421875	-58.842949
7493.554688	-58.553791
7579.687500	-57.234371
7665.820313	-59.824238
7751.953125	-57.185555
7838.085938	-51.754921
7924.218750	-52.426777
8010.351563	-57.824814
8096.484375	-61.848148
8182.617188	-66.205261
8268.750000	-69.564194
8354.882813	-72.578148
8441.015625	-75.564796
8527.148438	-77.282646
8613.281250	-76.676544
8699.414063	-71.471954
8785.546875	-67.603966
8871.679688	-65.916824
8957.812500	-64.544090
9043.945313	-59.763588
9130.078125	-55.356503
9216.210938	-53.425442
9302.343750	-55.861454
9388.476563	-58.450592
9474.609375	-60.196823
9560.742188	-61.525818
9646.875000	-63.457680
9733.007813	-64.285072
9819.140625	-63.938953
9905.273438	-63.744366
9991.406250	-63.289471
10077.539063	-62.373436
10163.671875	-61.451328
10249.804688	-61.117565
10335.937500	-60.749992
10422.070313	-60.092140
10508.203125	-58.037544
10594.335938	-54.650970
10680.468750	-51.044144
10766.601563	-52.463833
10852.734375	-57.424084
10938.867188	-61.373123
11025.000000	-65.407867
11111.132813	-68.113029
11197.265625	-69.983833
11283.398438	-71.793045
11369.531250	-74.176132
11455.664063	-76.129433
11541.796875	-78.160408
11627.929688	-73.629211
11714.062500	-71.270203
11800.195313	-67.394814
11886.328125	-64.412331
11972.460938	-61.871239
12058.593750	-59.610012
12144.726563	-60.798542
12230.859375	-62.071716
12316.992188	-63.393055
12403.125000	-65.409851
12489.257813	-66.511246
12575.390625	-67.765625
12661.523438	-70.621368
12747.656250	-73.884872
12833.789063	-74.731415
12919.921875	-74.770935
13006.054688	-72.982246
13092.187500	-69.856850
13178.320313	-68.105301
13264.453125	-67.678032
13350.585938	-68.524033
13436.718750	-70.517044
13522.851563	-71.268509
13608.984375	-70.797188
13695.117188	-69.788750
13781.250000	-68.657532
13867.382813	-66.817108
13953.515625	-65.194023
14039.648438	-64.754501
14125.781250	-65.393608
14211.914063	-68.020836
14298.046875	-71.816422
14384.179688	-73.880035
14470.312500	-72.985062
14556.445313	-72.931015
14642.578125	-74.558258
14728.710938	-76.074242
14814.843750	-77.683159
14900.976563	-79.436295
14987.109375	-76.622192
15073.242188	-76.294258
15159.375000	-77.460655
15245.507813	-78.676315
15331.640625	-76.036079
15417.773438	-71.451630
15503.906250	-69.042084
15590.039063	-67.710220
15676.171875	-66.140495
15762.304688	-64.064209
15848.437500	-64.477303
15934.570313	-67.859535
16020.703125	-70.973984
16106.835938	-72.620560
16192.968750	-73.143799
16279.101563	-73.743698
16365.234375	-74.899475
16451.367188	-76.378998
16537.500000	-77.640762
16623.632813	-78.443634
16709.765625	-79.315498
16795.898438	-80.518494
16882.031250	-81.312553
16968.164063	-82.601837
17054.296875	-84.287178
17140.429688	-87.062836
17226.562500	-89.590607
17312.695313	-90.552933
17398.828125	-88.596001
17484.960938	-88.074959
17571.093750	-84.831802
17657.226563	-80.019089
17743.359375	-75.804062
17829.492188	-72.598495
17915.625000	-70.245979
18001.757813	-69.212494
18087.890625	-70.485100
18174.023438	-73.601044
18260.156250	-75.989883
18346.289063	-76.896721
18432.421875	-76.332520
18518.554688	-76.182449
18604.687500	-78.399536
18690.820313	-81.010414
18776.953125	-82.298744
18863.085938	-82.314468
18949.218750	-82.790634
19035.351563	-83.902550
19121.484375	-84.346802
19207.617188	-83.114357
19293.750000	-82.542999
19379.882813	-82.516579
19466.015625	-82.730881
19552.148438	-82.411331
19638.281250	-81.476898
19724.414063	-80.633591
19810.546875	-81.078049
19896.679688	-82.775612
19982.812500	-84.494057
20068.945313	-85.988510
20155.078125	-86.624969
20241.210938	-86.836075
20327.343750	-87.107346
20413.476563	-87.922470
20499.609375	-89.036034
20585.742188	-90.074913
20671.875000	-91.029274
20758.007813	-91.840965
20844.140625	-92.545479
20930.273438	-93.347885
21016.406250	-94.191505
21102.539063	-95.633606
21188.671875	-98.025246
21274.804688	-100.540817
21360.937500	-103.510468
21447.070313	-107.631477
21533.203125	-112.747299
21619.335938	-118.970787
21705.468750	-126.152260
21791.601563	-130.788925
21877.734375	-129.336197
21963.867188	-128.699738
