Frequency (Hz)	Level (dB)
86.132813	-53.703667
172.265625	-57.710609
258.398438	-61.186218
344.531250	-63.262089
430.664063	-62.616600
516.796875	-61.800861
602.929688	-62.489529
689.062500	-63.686947
775.195313	-63.662628
861.328125	-63.294769
947.460938	-55.503021
1033.593750	-52.513195
1119.726563	-55.636307
1205.859375	-58.019581
1291.992188	-56.724648
1378.125000	-57.116444
1464.257813	-58.156300
1550.390625	-59.896454
1636.523438	-62.401928
1722.656250	-65.167671
1808.789063	-60.627792
1894.921875	-63.046333
1981.054688	-62.568672
2067.187500	-59.275089
2153.320313	-53.670319
2239.453125	-47.025059
2325.585938	-50.817013
2411.718750	-60.824684
2497.851563	-55.356956
2583.984375	-54.449516
2670.117188	-58.334587
2756.250000	-61.639297
2842.382813	-60.230644
2928.515625	-58.462128
3014.648438	-59.875999
3100.781250	-59.571972
3186.914063	-57.306095
3273.046875	-57.908909
3359.179688	-60.927895
3445.312500	-61.104801
3531.445313	-58.499134
3617.578125	-53.167103
3703.710938	-50.217316
3789.843750	-51.579990
3875.976563	-50.294979
3962.109375	-44.300423
4048.242188	-43.430904
4134.375000	-49.753040
4220.507813	-45.077518
4306.640625	-43.574409
4392.773438	-49.111847
4478.906250	-54.457462
4565.039063	-57.461651
4651.171875	-59.482101
4737.304688	-58.851295
4823.437500	-54.748222
4909.570313	-50.353237
4995.703125	-51.686806
5081.835938	-50.242340
5167.968750	-45.506054
5254.101563	-47.827152
5340.234375	-59.322670
5426.367188	-65.262932
5512.500000	-66.299393
5598.632813	-61.212673
5684.765625	-59.573692
5770.898438	-61.417664
5857.031250	-63.872185
5943.164063	-62.070999
6029.296875	-61.535374
6115.429688	-52.468796
6201.562500	-49.337452
6287.695313	-50.533379
6373.828125	-48.549347
6459.960938	-51.394436
6546.093750	-59.718918
6632.226563	-66.233757
6718.359375	-68.881287
6804.492188	-66.882492
6890.625000	-63.482018
6976.757813	-64.286919
7062.890625	-64.616745
7149.023438	-62.006077
7235.156250	-59.391556
7321.289063	-61.092613
7407.421875	-66.256310
7493.554688	-60.777447
7579.687500	-63.341782
7665.820313	-67.934479
7751.953125	-68.222931
7838.085938	-62.204144
7924.218750	-60.143616
8010.351563	-63.385010
8096.484375	-68.042259
8182.617188	-73.053223
8268.750000	-72.172218
8354.882813	-71.646194
8441.015625	-73.740402
8527.148438	-76.611595
8613.281250	-79.223976
8699.414063	-74.958939
8785.546875	-68.980263
8871.679688	-68.355225
8957.812500	-70.495598
9043.945313	-71.648094
9130.078125	-65.543381
9216.210938	-62.635956
9302.343750	-65.255775
9388.476563	-71.489082
9474.609375	-75.106812
9560.742188	-73.846291
9646.875000	-73.874428
9733.007813	-72.309952
9819.140625	-70.889351
9905.273438	-70.971870
9991.406250	-70.976418
10077.539063	-69.268555
10163.671875	-68.203880
10249.804688	-71.274666
10335.937500	-74.393562
10422.070313	-72.949104
10508.203125	-68.624741
10594.335938	-61.065456
10680.468750	-56.112190
10766.601563	-57.028984
10852.734375	-62.730022
10938.867188	-66.080917
11025.000000	-69.826912
11111.132813	-71.917435
11197.265625	-71.547211
11283.398438	-71.774757
11369.531250	-74.626587
11455.664063	-78.502342
11541.796875	-73.999344
11627.929688	-69.402321
11714.062500	-65.452682
11800.195313	-63.492409
11886.328125	-65.114883
11972.460938	-67.045692
12058.593750	-66.035004
12144.726563	-68.963760
12230.859375	-72.409767
12316.992188	-75.028488
12403.125000	-77.089828
12489.257813	-79.613083
12575.390625	-82.816246
12661.523438	-83.338570
12747.656250	-83.524635
12833.789063	-80.707726
12919.921875	-79.580841
13006.054688	-79.376999
13092.187500	-80.333687
13178.320313	-82.719124
13264.453125	-80.648956
13350.585938	-81.270622
13436.718750	-86.792366
13522.851563	-86.009979
13608.984375	-89.018265
13695.117188	-89.107407
13781.250000	-88.388054
13867.382813	-89.331917
13953.515625	-89.092506
14039.648438	-88.203720
14125.781250	-84.074196
14211.914063	-82.369415
14298.046875	-81.511917
14384.179688	-82.166527
14470.312500	-83.444962
14556.445313	-84.931976
14642.578125	-84.686623
14728.710938	-81.771858
14814.843750	-79.091690
14900.976563	-78.355408
14987.109375	-73.868149
15073.242188	-71.152756
15159.375000	-71.651016
15245.507813	-72.863037
15331.640625	-73.212196
15417.773438	-75.025871
15503.906250	-74.761810
15590.039063	-73.136871
15676.171875	-72.245659
15762.304688	-68.676712
15848.437500	-67.713974
15934.570313	-69.738121
16020.703125	-72.896881
16106.835938	-74.415733
16192.968750	-74.047684
16279.101563	-74.680496
16365.234375	-77.042374
16451.367188	-80.456207
16537.500000	-80.653633
16623.632813	-77.640106
16709.765625	-76.593391
16795.898438	-76.853577
16882.031250	-77.588448
16968.164063	-80.050743
17054.296875	-81.702583
17140.429688	-80.681839
17226.562500	-79.459412
17312.695313	-78.067886
17398.828125	-77.932144
17484.960938	-77.817673
17571.093750	-78.050400
17657.226563	-77.623795
17743.359375	-76.782257
17829.492188	-74.762680
17915.625000	-73.258797
18001.757813	-73.246407
18087.890625	-75.162277
18174.023438	-76.902649
18260.156250	-81.160957
18346.289063	-80.442123
18432.421875	-79.984154
18518.554688	-83.240211
18604.687500	-82.927696
18690.820313	-81.218689
18776.953125	-81.203865
18863.085938	-80.369537
18949.218750	-81.394394
19035.351563	-83.895050
19121.484375	-86.879028
19207.617188	-92.957832
19293.750000	-100.034363
19379.882813	-101.016579
19466.015625	-101.805138
19552.148438	-99.953003
19638.281250	-94.684128
19724.414063	-92.884026
19810.546875	-94.762497
19896.679688	-94.730881
19982.812500	-93.744133
20068.945313	-97.747604
20155.078125	-103.505585
20241.210938	-104.316925
20327.343750	-100.898193
20413.476563	-98.992599
20499.609375	-97.283577
20585.742188	-93.856888
20671.875000	-93.274269
20758.007813	-94.994827
20844.140625	-97.666542
20930.273438	-98.050476
21016.406250	-98.823654
21102.539063	-99.552544
21188.671875	-102.578667
21274.804688	-106.150276
21360.937500	-107.435089
21447.070313	-108.825661
21533.203125	-110.531624
21619.335938	-111.111000
21705.468750	-113.094002
21791.601563	-117.347580
21877.734375	-118.958565
21963.867188	-120.353149
