Frequency (Hz)	Level (dB)
86.132813	-55.800381
172.265625	-58.514565
258.398438	-59.861179
344.531250	-61.705921
430.664063	-62.676903
516.796875	-62.507637
602.929688	-62.397430
689.062500	-63.060757
775.195313	-64.691772
861.328125	-66.983757
947.460938	-67.909798
1033.593750	-66.420113
1119.726563	-63.997456
1205.859375	-62.005310
1291.992188	-60.393894
1378.125000	-60.522598
1464.257813	-63.619434
1550.390625	-67.673569
1636.523438	-71.246452
1722.656250	-72.505608
1808.789063	-69.577141
1894.921875	-65.398270
1981.054688	-64.176064
2067.187500	-59.186920
2153.320313	-51.833965
2239.453125	-46.801167
2325.585938	-50.990379
2411.718750	-57.861835
2497.851563	-61.079506
2583.984375	-62.181995
2670.117188	-55.835182
2756.250000	-55.496712
2842.382813	-61.276646
2928.515625	-63.590473
3014.648438	-64.671196
3100.781250	-64.301483
3186.914063	-64.496246
3273.046875	-64.569420
3359.179688	-64.638306
3445.312500	-64.646317
3531.445313	-64.987282
3617.578125	-64.075188
3703.710938	-57.982765
3789.843750	-55.398289
3875.976563	-58.478088
3962.109375	-54.996899
4048.242188	-55.333385
4134.375000	-62.259674
4220.507813	-57.290642
4306.640625	-53.212990
4392.773438	-57.483692
4478.906250	-61.641682
4565.039063	-63.717541
4651.171875	-66.546043
4737.304688	-72.726219
4823.437500	-65.550529
4909.570313	-62.131935
4995.703125	-57.498142
5081.835938	-53.952415
5167.968750	-49.425766
5254.101563	-50.964794
5340.234375	-59.187901
5426.367188	-65.464500
5512.500000	-71.182144
5598.632813	-76.575829
5684.765625	-70.298721
5770.898438	-68.211967
5857.031250	-67.164207
5943.164063	-64.782661
6029.296875	-61.412125
6115.429688	-58.186188
6201.562500	-54.863102
6287.695313	-55.825310
6373.828125	-57.356670
6459.960938	-60.318428
6546.093750	-65.626511
6632.226563	-72.472916
6718.359375	-84.153183
6804.492188	-79.221725
6890.625000	-77.525581
6976.757813	-77.057472
7062.890625	-75.958992
7149.023438	-70.131462
7235.156250	-64.626633
7321.289063	-62.105053
7407.421875	-61.565937
7493.554688	-58.083530
7579.687500	-58.548313
7665.820313	-63.556320
7751.953125	-65.688835
7838.085938	-63.776218
7924.218750	-64.047821
8010.351563	-67.689133
8096.484375	-68.537460
8182.617188	-69.578537
8268.750000	-69.767624
8354.882813	-69.106667
8441.015625	-68.649155
8527.148438	-68.214684
8613.281250	-66.671989
8699.414063	-64.228386
8785.546875	-62.100357
8871.679688	-61.934330
8957.812500	-63.184261
9043.945313	-66.859596
9130.078125	-66.517365
9216.210938	-63.144737
9302.343750	-62.646496
9388.476563	-63.575363
9474.609375	-63.958519
9560.742188	-63.631416
9646.875000	-64.505867
9733.007813	-66.207916
9819.140625	-69.254936
9905.273438	-69.831673
9991.406250	-68.116394
10077.539063	-67.162735
10163.671875	-68.322098
10249.804688	-73.573425
10335.937500	-74.074356
10422.070313	-66.199509
10508.203125	-62.825626
10594.335938	-60.795277
10680.468750	-58.744160
10766.601563	-60.527077
10852.734375	-66.850311
10938.867188	-75.251236
11025.000000	-81.466499
11111.132813	-80.749046
11197.265625	-78.715042
11283.398438	-78.327461
11369.531250	-79.914658
11455.664063	-81.736488
11541.796875	-81.923515
11627.929688	-80.202187
11714.062500	-79.042358
11800.195313	-71.930275
11886.328125	-68.222725
11972.460938	-66.496689
12058.593750	-66.639343
12144.726563	-68.455124
12230.859375	-70.615059
12316.992188	-74.375099
12403.125000	-80.100494
12489.257813	-83.378799
12575.390625	-79.026459
12661.523438	-77.120300
12747.656250	-78.136055
12833.789063	-81.461838
12919.921875	-82.697830
13006.054688	-80.682396
13092.187500	-77.890236
13178.320313	-74.898445
13264.453125	-72.740601
13350.585938	-71.978981
13436.718750	-72.624123
13522.851563	-74.544823
13608.984375	-78.028671
13695.117188	-81.894089
13781.250000	-82.815445
13867.382813	-81.478546
13953.515625	-80.308670
14039.648438	-79.454369
14125.781250	-78.608292
14211.914063	-77.976707
14298.046875	-77.013176
14384.179688	-74.931282
14470.312500	-73.456711
14556.445313	-73.470947
14642.578125	-74.845940
14728.710938	-76.735092
14814.843750	-78.500908
14900.976563	-78.044281
14987.109375	-75.829872
15073.242188	-74.017082
15159.375000	-72.593277
15245.507813	-73.388351
15331.640625	-74.888107
15417.773438	-74.980507
15503.906250	-74.165962
15590.039063	-73.963081
15676.171875	-74.208649
15762.304688	-74.611542
15848.437500	-75.618294
15934.570313	-78.652176
16020.703125	-80.968384
16106.835938	-80.590736
16192.968750	-80.214012
16279.101563	-81.043938
16365.234375	-82.308784
16451.367188	-84.410492
16537.500000	-87.000877
16623.632813	-86.578651
16709.765625	-83.019455
16795.898438	-80.644661
16882.031250	-79.538864
16968.164063	-78.676819
17054.296875	-78.254578
17140.429688	-78.872284
17226.562500	-79.956886
17312.695313	-80.163658
17398.828125	-79.931702
17484.960938	-80.552376
17571.093750	-81.365265
17657.226563	-80.788345
17743.359375	-79.522278
17829.492188	-78.204582
17915.625000	-76.979515
18001.757813	-76.456253
18087.890625	-76.931046
18174.023438	-78.183701
18260.156250	-79.391808
18346.289063	-80.785210
18432.421875	-82.658577
18518.554688	-85.148521
18604.687500	-85.953033
18690.820313	-85.523285
18776.953125	-84.942307
18863.085938	-83.840622
18949.218750	-83.296104
19035.351563	-83.902634
19121.484375	-84.743156
19207.617188	-85.699020
19293.750000	-86.930573
19379.882813	-90.446640
19466.015625	-95.476952
19552.148438	-91.334427
19638.281250	-87.244835
19724.414063	-85.218796
19810.546875	-83.955078
19896.679688	-84.210312
19982.812500	-86.316956
20068.945313	-89.104919
20155.078125	-93.284859
20241.210938	-101.031090
20327.343750	-109.112648
20413.476563	-110.934296
20499.609375	-108.171745
20585.742188	-106.460808
20671.875000	-106.897690
20758.007813	-109.005486
20844.140625	-113.047142
20930.273438	-115.704285
21016.406250	-114.638954
21102.539063	-115.589607
21188.671875	-119.049118
21274.804688	-121.855057
21360.937500	-121.979530
21447.070313	-120.000282
21533.203125	-119.795410
21619.335938	-121.461288
21705.468750	-122.859779
21791.601563	-123.236519
21877.734375	-124.397072
21963.867188	-127.378777
