Frequency (Hz)	Level (dB)
86.132813	-49.884560
172.265625	-54.481556
258.398438	-57.528824
344.531250	-58.289661
430.664063	-57.269901
516.796875	-59.092278
602.929688	-60.578518
689.062500	-61.351448
775.195313	-62.028229
861.328125	-63.284798
947.460938	-57.367542
1033.593750	-54.928463
1119.726563	-59.097633
1205.859375	-58.569130
1291.992188	-57.281864
1378.125000	-58.029816
1464.257813	-59.037174
1550.390625	-59.851742
1636.523438	-63.117474
1722.656250	-61.984802
1808.789063	-58.550262
1894.921875	-60.412815
1981.054688	-61.587662
2067.187500	-58.015816
2153.320313	-56.147911
2239.453125	-51.227234
2325.585938	-54.727737
2411.718750	-59.044231
2497.851563	-56.144127
2583.984375	-51.048550
2670.117188	-53.037674
2756.250000	-55.178165
2842.382813	-55.551357
2928.515625	-58.414501
3014.648438	-60.493214
3100.781250	-61.984131
3186.914063	-60.914135
3273.046875	-62.553276
3359.179688	-64.429733
3445.312500	-62.365612
3531.445313	-58.342678
3617.578125	-50.652435
3703.710938	-45.320049
3789.843750	-48.979717
3875.976563	-54.421173
3962.109375	-48.361511
4048.242188	-47.428486
4134.375000	-54.514381
4220.507813	-49.762249
4306.640625	-47.379673
4392.773438	-52.401020
4478.906250	-55.801769
4565.039063	-55.903465
4651.171875	-55.932941
4737.304688	-55.681999
4823.437500	-54.397099
4909.570313	-49.749275
4995.703125	-47.665306
5081.835938	-44.804649
5167.968750	-39.973000
5254.101563	-41.658379
5340.234375	-49.127628
5426.367188	-53.658413
5512.500000	-57.803436
5598.632813	-58.544304
5684.765625	-58.900749
5770.898438	-60.027180
5857.031250	-58.720604
5943.164063	-58.821259
6029.296875	-59.816792
6115.429688	-58.200264
6201.562500	-58.508362
6287.695313	-56.511612
6373.828125	-50.418499
6459.960938	-52.608818
6546.093750	-58.476261
6632.226563	-61.145103
6718.359375	-61.832912
6804.492188	-62.273880
6890.625000	-63.172890
6976.757813	-64.372749
7062.890625	-63.398830
7149.023438	-63.872440
7235.156250	-63.282742
7321.289063	-63.287163
7407.421875	-65.241791
7493.554688	-64.147408
7579.687500	-62.701504
7665.820313	-68.543037
7751.953125	-68.056335
7838.085938	-61.608856
7924.218750	-62.251377
8010.351563	-68.397316
8096.484375	-74.718651
8182.617188	-77.933426
8268.750000	-77.009483
8354.882813	-75.873611
8441.015625	-77.127296
8527.148438	-78.508286
8613.281250	-81.954796
8699.414063	-79.952408
8785.546875	-75.634384
8871.679688	-72.164902
8957.812500	-69.874313
9043.945313	-65.367722
9130.078125	-60.658833
9216.210938	-58.067566
9302.343750	-60.062618
9388.476563	-62.723049
9474.609375	-64.711220
9560.742188	-66.051682
9646.875000	-66.623787
9733.007813	-65.773651
9819.140625	-65.875496
9905.273438	-65.738701
9991.406250	-64.666901
10077.539063	-63.287029
10163.671875	-62.074577
10249.804688	-61.386494
10335.937500	-60.678539
10422.070313	-60.749737
10508.203125	-59.944244
10594.335938	-57.394306
10680.468750	-54.157978
10766.601563	-55.591354
10852.734375	-60.323807
10938.867188	-63.994534
11025.000000	-68.913643
11111.132813	-72.258835
11197.265625	-74.631393
11283.398438	-78.747429
11369.531250	-82.594246
11455.664063	-81.089790
11541.796875	-77.998940
11627.929688	-72.524666
11714.062500	-71.005264
11800.195313	-72.226425
11886.328125	-70.867821
11972.460938	-68.907387
12058.593750	-66.165092
12144.726563	-66.679001
12230.859375	-67.838120
12316.992188	-69.225853
12403.125000	-71.032089
12489.257813	-71.912071
12575.390625	-73.446205
12661.523438	-76.201057
12747.656250	-80.026642
12833.789063	-83.472351
12919.921875	-83.579842
13006.054688	-79.564156
13092.187500	-75.683708
13178.320313	-74.298737
13264.453125	-74.873726
13350.585938	-76.919579
13436.718750	-81.175468
13522.851563	-83.471062
13608.984375	-81.880341
13695.117188	-80.788498
13781.250000	-79.840103
13867.382813	-78.932755
13953.515625	-77.492065
14039.648438	-76.667641
14125.781250	-76.677185
14211.914063	-77.781685
14298.046875	-79.876106
14384.179688	-81.800850
14470.312500	-81.785500
14556.445313	-81.976379
14642.578125	-82.593430
14728.710938	-80.694664
14814.843750	-79.715172
14900.976563	-81.205070
14987.109375	-81.773743
15073.242188	-80.491196
15159.375000	-80.802780
15245.507813	-80.476463
15331.640625	-78.534363
15417.773438	-76.767509
15503.906250	-74.167877
15590.039063	-72.237114
15676.171875	-69.921692
15762.304688	-67.693291
15848.437500	-68.060204
15934.570313	-71.352989
16020.703125	-74.310661
16106.835938	-73.964050
16192.968750	-73.181526
16279.101563	-72.956619
16365.234375	-72.709641
16451.367188	-72.446053
16537.500000	-72.445091
16623.632813	-72.770691
16709.765625	-74.445549
16795.898438	-76.702606
16882.031250	-78.144531
16968.164063	-79.590904
17054.296875	-81.917625
17140.429688	-85.045937
17226.562500	-87.056267
17312.695313	-88.825974
17398.828125	-88.222389
17484.960938	-87.062057
17571.093750	-85.508881
17657.226563	-82.401672
17743.359375	-79.551598
17829.492188	-77.617065
17915.625000	-76.052376
18001.757813	-75.185905
18087.890625	-77.723305
18174.023438	-80.785141
18260.156250	-81.399460
18346.289063	-79.855865
18432.421875	-78.553261
18518.554688	-80.215675
18604.687500	-84.327934
18690.820313	-86.132851
18776.953125	-85.170586
18863.085938	-85.215996
18949.218750	-86.786018
19035.351563	-86.923363
19121.484375	-85.703087
19207.617188	-85.003052
19293.750000	-84.704964
19379.882813	-85.333961
19466.015625	-85.974800
19552.148438	-85.957062
19638.281250	-85.609489
19724.414063	-85.488914
19810.546875	-86.017082
19896.679688	-87.446754
19982.812500	-89.201805
20068.945313	-90.588127
20155.078125	-91.404663
20241.210938	-91.268372
20327.343750	-91.348022
20413.476563	-92.281433
20499.609375	-93.356522
20585.742188	-93.725220
20671.875000	-94.086388
20758.007813	-94.308197
20844.140625	-95.059395
20930.273438	-96.203079
21016.406250	-97.423210
21102.539063	-99.093773
21188.671875	-101.697479
21274.804688	-104.533470
21360.937500	-107.120064
21447.070313	-109.854752
21533.203125	-113.375740
21619.335938	-119.405487
21705.468750	-127.460922
21791.601563	-128.216385
21877.734375	-125.585197
21963.867188	-125.730560
