Frequency (Hz)	Level (dB)
86.132813	-53.650810
172.265625	-58.409657
258.398438	-60.072643
344.531250	-61.355133
430.664063	-61.186031
516.796875	-61.033218
602.929688	-61.646709
689.062500	-62.235210
775.195313	-62.222195
861.328125	-62.322563
947.460938	-54.752155
1033.593750	-51.739777
1119.726563	-56.308350
1205.859375	-57.624943
1291.992188	-56.357880
1378.125000	-56.837719
1464.257813	-57.710812
1550.390625	-58.779373
1636.523438	-59.984867
1722.656250	-61.677696
1808.789063	-59.527393
1894.921875	-60.731716
1981.054688	-60.726563
2067.187500	-57.935551
2153.320313	-52.853806
2239.453125	-47.983028
2325.585938	-51.725475
2411.718750	-57.728889
2497.851563	-55.686359
2583.984375	-55.148315
2670.117188	-58.285236
2756.250000	-59.736736
2842.382813	-59.628136
2928.515625	-59.759922
3014.648438	-61.972263
3100.781250	-62.404404
3186.914063	-60.207996
3273.046875	-60.876465
3359.179688	-63.040077
3445.312500	-62.912968
3531.445313	-60.625542
3617.578125	-53.633087
3703.710938	-49.623554
3789.843750	-52.267399
3875.976563	-51.773563
3962.109375	-44.465931
4048.242188	-43.957500
4134.375000	-48.103718
4220.507813	-45.214642
4306.640625	-44.015331
4392.773438	-48.358059
4478.906250	-52.252689
4565.039063	-55.292767
4651.171875	-57.476105
4737.304688	-57.414207
4823.437500	-54.749683
4909.570313	-51.242878
4995.703125	-53.524586
5081.835938	-50.469391
5167.968750	-43.779766
5254.101563	-45.754253
5340.234375	-55.427654
5426.367188	-62.910988
5512.500000	-63.137417
5598.632813	-59.988716
5684.765625	-58.732014
5770.898438	-59.374420
5857.031250	-61.910389
5943.164063	-61.511295
6029.296875	-57.867813
6115.429688	-52.227371
6201.562500	-49.719284
6287.695313	-51.823059
6373.828125	-49.280346
6459.960938	-51.580246
6546.093750	-58.757599
6632.226563	-65.124069
6718.359375	-66.687164
6804.492188	-65.539696
6890.625000	-63.990326
6976.757813	-63.984295
7062.890625	-61.750656
7149.023438	-60.588539
7235.156250	-60.367245
7321.289063	-59.339989
7407.421875	-62.374882
7493.554688	-62.913433
7579.687500	-62.967918
7665.820313	-63.723602
7751.953125	-63.812962
7838.085938	-59.550449
7924.218750	-59.763546
8010.351563	-64.671089
8096.484375	-68.223732
8182.617188	-71.803719
8268.750000	-74.379028
8354.882813	-75.362808
8441.015625	-76.949921
8527.148438	-79.814705
8613.281250	-78.653084
8699.414063	-75.683914
8785.546875	-74.482277
8871.679688	-72.696350
8957.812500	-72.008400
9043.945313	-69.443573
9130.078125	-65.279587
9216.210938	-63.435230
9302.343750	-65.256042
9388.476563	-68.891747
9474.609375	-69.563217
9560.742188	-67.946587
9646.875000	-68.803757
9733.007813	-70.860886
9819.140625	-71.431725
9905.273438	-72.146767
9991.406250	-72.486542
10077.539063	-72.846870
10163.671875	-72.236000
10249.804688	-71.746025
10335.937500	-70.689056
10422.070313	-70.033012
10508.203125	-66.575493
10594.335938	-61.146816
10680.468750	-56.585514
10766.601563	-57.490089
10852.734375	-61.741230
10938.867188	-64.669533
11025.000000	-67.483620
11111.132813	-69.425667
11197.265625	-70.094185
11283.398438	-70.470901
11369.531250	-72.177101
11455.664063	-77.157669
11541.796875	-74.923386
11627.929688	-68.770737
11714.062500	-65.624748
11800.195313	-63.299946
11886.328125	-62.560844
11972.460938	-63.597668
12058.593750	-63.537952
12144.726563	-65.506073
12230.859375	-68.715637
12316.992188	-71.883881
12403.125000	-74.446426
12489.257813	-76.329048
12575.390625	-77.719917
12661.523438	-76.930702
12747.656250	-76.896515
12833.789063	-76.214928
12919.921875	-75.816826
13006.054688	-76.600212
13092.187500	-77.709511
13178.320313	-79.070412
13264.453125	-79.457527
13350.585938	-80.356544
13436.718750	-84.282402
13522.851563	-88.364853
13608.984375	-92.073288
13695.117188	-91.517456
13781.250000	-90.654617
13867.382813	-91.501747
13953.515625	-87.780739
14039.648438	-85.629974
14125.781250	-84.045586
14211.914063	-81.932220
14298.046875	-81.335258
14384.179688	-81.935806
14470.312500	-83.905838
14556.445313	-86.010239
14642.578125	-83.954231
14728.710938	-80.489609
14814.843750	-79.269386
14900.976563	-77.724907
14987.109375	-76.152451
15073.242188	-76.581635
15159.375000	-79.413734
15245.507813	-79.373474
15331.640625	-76.398460
15417.773438	-73.573997
15503.906250	-72.829559
15590.039063	-72.655945
15676.171875	-71.950081
15762.304688	-70.386337
15848.437500	-69.611862
15934.570313	-70.642525
16020.703125	-71.753204
16106.835938	-72.849243
16192.968750	-73.443733
16279.101563	-74.230843
16365.234375	-75.485382
16451.367188	-76.832588
16537.500000	-76.771347
16623.632813	-76.126488
16709.765625	-75.381226
16795.898438	-75.571030
16882.031250	-77.071236
16968.164063	-79.099106
17054.296875	-80.772469
17140.429688	-80.372543
17226.562500	-79.027924
17312.695313	-77.739815
17398.828125	-77.179512
17484.960938	-76.361565
17571.093750	-74.576187
17657.226563	-73.840286
17743.359375	-73.256485
17829.492188	-72.003777
17915.625000	-71.144928
18001.757813	-71.558281
18087.890625	-73.266525
18174.023438	-75.524315
18260.156250	-78.800743
18346.289063	-80.720161
18432.421875	-81.230522
18518.554688	-80.928268
18604.687500	-79.204346
18690.820313	-78.319885
18776.953125	-78.727509
18863.085938	-79.581299
18949.218750	-81.079010
19035.351563	-84.380829
19121.484375	-91.209557
19207.617188	-96.428246
19293.750000	-93.649551
19379.882813	-94.092628
19466.015625	-94.959404
19552.148438	-94.753860
19638.281250	-93.291595
19724.414063	-91.324661
19810.546875	-91.150124
19896.679688	-90.800415
19982.812500	-92.619720
20068.945313	-95.058159
20155.078125	-96.539177
20241.210938	-100.283195
20327.343750	-103.627556
20413.476563	-102.876472
20499.609375	-100.922714
20585.742188	-99.404312
20671.875000	-98.032707
20758.007813	-97.818062
20844.140625	-98.996460
20930.273438	-100.082840
21016.406250	-100.090866
21102.539063	-101.183372
21188.671875	-103.664818
21274.804688	-106.296028
21360.937500	-108.347183
21447.070313	-110.524498
21533.203125	-112.009003
21619.335938	-113.738304
21705.468750	-115.926353
21791.601563	-118.538483
21877.734375	-120.124107
21963.867188	-119.692131
