Frequency (Hz)	Level (dB)
86.132813	-50.179653
172.265625	-52.849350
258.398438	-57.819771
344.531250	-61.046188
430.664063	-60.444805
516.796875	-60.161873
602.929688	-60.558601
689.062500	-61.072437
775.195313	-62.194061
861.328125	-63.806728
947.460938	-64.520660
1033.593750	-67.542168
1119.726563	-64.974312
1205.859375	-60.832741
1291.992188	-59.237221
1378.125000	-59.958702
1464.257813	-64.538399
1550.390625	-71.556068
1636.523438	-63.956726
1722.656250	-63.533855
1808.789063	-62.127274
1894.921875	-62.916752
1981.054688	-65.424904
2067.187500	-62.038803
2153.320313	-62.045834
2239.453125	-63.744003
2325.585938	-65.363243
2411.718750	-66.663376
2497.851563	-63.673206
2583.984375	-58.614098
2670.117188	-53.839317
2756.250000	-54.476791
2842.382813	-60.266060
2928.515625	-61.362953
3014.648438	-64.292480
3100.781250	-69.131744
3186.914063	-67.777344
3273.046875	-66.021812
3359.179688	-64.233276
3445.312500	-60.198475
3531.445313	-58.687786
3617.578125	-55.587276
3703.710938	-52.911591
3789.843750	-56.972179
3875.976563	-66.993988
3962.109375	-60.365242
4048.242188	-62.448204
4134.375000	-61.320126
4220.507813	-54.477615
4306.640625	-54.176601
4392.773438	-58.566109
4478.906250	-61.942276
4565.039063	-64.965385
4651.171875	-63.888954
4737.304688	-66.595894
4823.437500	-54.533474
4909.570313	-47.400646
4995.703125	-46.024864
5081.835938	-43.352039
5167.968750	-37.987087
5254.101563	-38.339603
5340.234375	-44.253628
5426.367188	-49.866302
5512.500000	-55.153370
5598.632813	-54.276196
5684.765625	-52.699558
5770.898438	-53.785469
5857.031250	-56.512264
5943.164063	-62.101498
6029.296875	-66.079910
6115.429688	-60.557571
6201.562500	-55.842632
6287.695313	-54.852089
6373.828125	-57.361370
6459.960938	-62.814674
6546.093750	-66.933434
6632.226563	-70.942139
6718.359375	-75.641830
6804.492188	-71.976448
6890.625000	-66.382820
6976.757813	-63.835091
7062.890625	-64.386543
7149.023438	-69.310997
7235.156250	-74.998978
7321.289063	-69.528641
7407.421875	-71.107559
7493.554688	-68.913094
7579.687500	-70.047226
7665.820313	-70.412979
7751.953125	-65.316826
7838.085938	-63.663574
7924.218750	-64.478706
8010.351563	-68.683075
8096.484375	-74.650681
8182.617188	-79.617378
8268.750000	-78.520706
8354.882813	-75.094406
8441.015625	-74.579727
8527.148438	-76.986023
8613.281250	-73.204147
8699.414063	-69.746506
8785.546875	-69.121719
8871.679688	-70.078941
8957.812500	-72.980095
9043.945313	-71.428131
9130.078125	-65.931435
9216.210938	-64.106544
9302.343750	-67.671616
9388.476563	-75.926956
9474.609375	-78.175072
9560.742188	-74.656029
9646.875000	-74.856491
9733.007813	-80.424583
9819.140625	-75.878799
9905.273438	-75.430870
9991.406250	-78.181007
10077.539063	-76.514214
10163.671875	-73.229996
10249.804688	-71.201988
10335.937500	-71.190033
10422.070313	-67.529846
10508.203125	-62.931561
10594.335938	-58.243038
10680.468750	-55.560535
10766.601563	-57.891109
10852.734375	-64.532082
10938.867188	-64.231186
11025.000000	-66.287445
11111.132813	-68.726868
11197.265625	-70.233253
11283.398438	-72.049232
11369.531250	-77.089546
11455.664063	-78.709366
11541.796875	-83.202103
11627.929688	-80.924118
11714.062500	-74.416832
11800.195313	-69.629089
11886.328125	-68.202271
11972.460938	-68.161400
12058.593750	-69.681076
12144.726563	-74.639832
12230.859375	-80.910378
12316.992188	-80.561638
12403.125000	-78.530609
12489.257813	-81.427299
12575.390625	-78.988937
12661.523438	-75.781075
12747.656250	-76.024506
12833.789063	-80.489914
12919.921875	-85.459732
13006.054688	-82.938499
13092.187500	-78.526421
13178.320313	-76.471893
13264.453125	-76.401489
13350.585938	-78.685097
13436.718750	-83.349533
13522.851563	-86.626350
13608.984375	-89.977158
13695.117188	-90.993980
13781.250000	-87.052185
13867.382813	-85.387840
13953.515625	-82.341515
14039.648438	-79.430206
14125.781250	-78.814613
14211.914063	-79.729912
14298.046875	-82.862335
14384.179688	-81.744606
14470.312500	-76.906677
14556.445313	-77.167336
14642.578125	-78.779831
14728.710938	-80.436836
14814.843750	-82.736298
14900.976563	-84.567482
14987.109375	-88.270493
15073.242188	-84.830269
15159.375000	-81.069466
15245.507813	-79.066124
15331.640625	-75.452400
15417.773438	-72.955101
15503.906250	-72.960541
15590.039063	-74.794159
15676.171875	-73.850739
15762.304688	-68.459167
15848.437500	-67.282440
15934.570313	-69.237129
16020.703125	-71.069473
16106.835938	-73.054802
16192.968750	-77.447212
16279.101563	-83.138878
16365.234375	-80.618233
16451.367188	-78.035118
16537.500000	-77.915596
16623.632813	-79.761223
16709.765625	-84.141060
16795.898438	-83.997215
16882.031250	-79.660622
16968.164063	-76.483803
17054.296875	-75.461266
17140.429688	-74.550972
17226.562500	-75.058586
17312.695313	-78.136238
17398.828125	-81.796249
17484.960938	-84.500687
17571.093750	-80.155289
17657.226563	-75.628784
17743.359375	-73.957062
17829.492188	-73.708878
17915.625000	-73.445107
18001.757813	-75.318092
18087.890625	-79.013176
18174.023438	-82.147522
18260.156250	-82.246712
18346.289063	-80.137543
18432.421875	-80.778481
18518.554688	-81.924522
18604.687500	-82.971458
18690.820313	-84.128868
18776.953125	-86.091026
18863.085938	-87.748894
18949.218750	-83.370636
19035.351563	-80.157722
19121.484375	-80.517014
19207.617188	-82.444946
19293.750000	-85.990776
19379.882813	-91.947960
19466.015625	-98.553848
19552.148438	-104.655487
19638.281250	-100.464310
19724.414063	-98.103401
19810.546875	-97.115990
19896.679688	-95.939301
19982.812500	-96.563255
20068.945313	-95.300026
20155.078125	-95.425339
20241.210938	-98.118065
20327.343750	-100.460960
20413.476563	-101.699028
20499.609375	-100.992920
20585.742188	-100.677574
20671.875000	-99.688057
20758.007813	-99.651283
20844.140625	-99.496971
20930.273438	-98.673889
21016.406250	-97.864250
21102.539063	-98.528793
21188.671875	-101.192436
21274.804688	-104.812706
21360.937500	-106.973267
21447.070313	-106.864937
21533.203125	-108.710983
21619.335938	-112.010262
21705.468750	-114.166565
21791.601563	-116.302628
21877.734375	-118.610970
21963.867188	-120.324753
