Frequency (Hz)	Level (dB)
86.132813	-49.592575
172.265625	-51.132549
258.398438	-54.814693
344.531250	-58.214172
430.664063	-59.423321
516.796875	-62.949375
602.929688	-60.790749
689.062500	-61.142052
775.195313	-60.860580
861.328125	-61.971424
947.460938	-61.796764
1033.593750	-57.431450
1119.726563	-49.073853
1205.859375	-45.374779
1291.992188	-47.663136
1378.125000	-52.154575
1464.257813	-54.489574
1550.390625	-57.092567
1636.523438	-60.961349
1722.656250	-64.813133
1808.789063	-59.082767
1894.921875	-60.738537
1981.054688	-69.928131
2067.187500	-56.672710
2153.320313	-51.482296
2239.453125	-53.332268
2325.585938	-59.110966
2411.718750	-63.619816
2497.851563	-64.178215
2583.984375	-62.470695
2670.117188	-60.817604
2756.250000	-61.057911
2842.382813	-63.479836
2928.515625	-57.586044
3014.648438	-60.782349
3100.781250	-58.401005
3186.914063	-54.272552
3273.046875	-58.137566
3359.179688	-66.405510
3445.312500	-72.518600
3531.445313	-64.584435
3617.578125	-58.180393
3703.710938	-58.654732
3789.843750	-62.968472
3875.976563	-62.572868
3962.109375	-60.711269
4048.242188	-55.268925
4134.375000	-48.674732
4220.507813	-49.273289
4306.640625	-52.664360
4392.773438	-54.216831
4478.906250	-59.585415
4565.039063	-59.677036
4651.171875	-58.647079
4737.304688	-52.715588
4823.437500	-45.919178
4909.570313	-46.493145
4995.703125	-55.592621
5081.835938	-63.281391
5167.968750	-67.064301
5254.101563	-64.113106
5340.234375	-62.660675
5426.367188	-62.000607
5512.500000	-64.087105
5598.632813	-67.002144
5684.765625	-67.286377
5770.898438	-69.909798
5857.031250	-71.521385
5943.164063	-68.995346
6029.296875	-63.734909
6115.429688	-62.404667
6201.562500	-62.593208
6287.695313	-62.383900
6373.828125	-65.345261
6459.960938	-71.702156
6546.093750	-66.192780
6632.226563	-65.558395
6718.359375	-69.758873
6804.492188	-72.229637
6890.625000	-67.316765
6976.757813	-63.319969
7062.890625	-64.525215
7149.023438	-68.712517
7235.156250	-69.838188
7321.289063	-73.678604
7407.421875	-77.807037
7493.554688	-70.510796
7579.687500	-63.569485
7665.820313	-62.558624
7751.953125	-62.837742
7838.085938	-63.741325
7924.218750	-70.021439
8010.351563	-73.722565
8096.484375	-69.676048
8182.617188	-70.112190
8268.750000	-72.536537
8354.882813	-75.161163
8441.015625	-82.087212
8527.148438	-83.572449
8613.281250	-82.666855
8699.414063	-83.599304
8785.546875	-86.099907
8871.679688	-83.699883
8957.812500	-76.462097
9043.945313	-71.871452
9130.078125	-69.756546
9216.210938	-70.301682
9302.343750	-77.700020
9388.476563	-73.380920
9474.609375	-72.890633
9560.742188	-75.159767
9646.875000	-76.013268
9733.007813	-75.829605
9819.140625	-70.846588
9905.273438	-66.745010
9991.406250	-63.634769
10077.539063	-58.950367
10163.671875	-58.509068
10249.804688	-63.117176
10335.937500	-69.027061
10422.070313	-72.740585
10508.203125	-77.502182
10594.335938	-79.878113
10680.468750	-82.789970
10766.601563	-87.335648
10852.734375	-89.069115
10938.867188	-85.845848
11025.000000	-80.081093
11111.132813	-80.328148
11197.265625	-81.778519
11283.398438	-82.652580
11369.531250	-85.280701
11455.664063	-88.086388
11541.796875	-86.463257
11627.929688	-84.687134
11714.062500	-80.599602
11800.195313	-77.693367
11886.328125	-78.699471
11972.460938	-81.391609
12058.593750	-81.739983
12144.726563	-82.969551
12230.859375	-83.627846
12316.992188	-84.650452
12403.125000	-88.573174
12489.257813	-92.120461
12575.390625	-93.648636
12661.523438	-90.646561
12747.656250	-87.734650
12833.789063	-87.779442
12919.921875	-90.019394
13006.054688	-90.752121
13092.187500	-87.125916
13178.320313	-85.150307
13264.453125	-85.934822
13350.585938	-87.479378
13436.718750	-90.463516
13522.851563	-92.780899
13608.984375	-93.716408
13695.117188	-95.811348
13781.250000	-93.116234
13867.382813	-85.211700
13953.515625	-80.865334
14039.648438	-81.628815
14125.781250	-81.566055
14211.914063	-84.224030
14298.046875	-90.107025
14384.179688	-83.870468
14470.312500	-84.432030
14556.445313	-89.698006
14642.578125	-97.003906
14728.710938	-102.654823
14814.843750	-96.568672
14900.976563	-91.940277
14987.109375	-90.593178
15073.242188	-94.322472
15159.375000	-97.203850
15245.507813	-98.181526
15331.640625	-88.467514
15417.773438	-83.056404
15503.906250	-85.470787
15590.039063	-87.777016
15676.171875	-83.823860
15762.304688	-86.067680
15848.437500	-88.716568
15934.570313	-88.432671
16020.703125	-85.357513
16106.835938	-84.419853
16192.968750	-87.550186
16279.101563	-93.135895
16365.234375	-92.558914
16451.367188	-89.782440
16537.500000	-90.960434
16623.632813	-87.925888
16709.765625	-85.185196
16795.898438	-85.461533
16882.031250	-85.644157
16968.164063	-85.151787
17054.296875	-87.142021
17140.429688	-89.546638
17226.562500	-93.010201
17312.695313	-87.429855
17398.828125	-88.022224
17484.960938	-89.930679
17571.093750	-88.396286
17657.226563	-92.490883
17743.359375	-93.989029
17829.492188	-94.651733
17915.625000	-95.135674
18001.757813	-94.560005
18087.890625	-92.022339
18174.023438	-92.956406
18260.156250	-97.578285
18346.289063	-96.741844
18432.421875	-96.305237
18518.554688	-94.777336
18604.687500	-95.867577
18690.820313	-96.152519
18776.953125	-94.536446
18863.085938	-92.840553
18949.218750	-93.283134
19035.351563	-100.383644
19121.484375	-97.947159
19207.617188	-95.382553
19293.750000	-102.137444
19379.882813	-103.637894
19466.015625	-103.543114
19552.148438	-101.112816
19638.281250	-102.123062
19724.414063	-105.429375
19810.546875	-108.545700
19896.679688	-106.008598
19982.812500	-101.759171
20068.945313	-104.550690
20155.078125	-116.515060
20241.210938	-112.651024
20327.343750	-115.215385
20413.476563	-106.983047
20499.609375	-106.342300
20585.742188	-109.076866
20671.875000	-115.948715
20758.007813	-118.804047
20844.140625	-111.895035
20930.273438	-112.217239
21016.406250	-110.675102
21102.539063	-110.137527
21188.671875	-115.635368
21274.804688	-125.187790
21360.937500	-125.320595
21447.070313	-130.621307
21533.203125	-127.797844
21619.335938	-130.073456
21705.468750	-127.450684
21791.601563	-131.130676
21877.734375	-137.824188
21963.867188	-134.848938
