Frequency (Hz)	Level (dB)
86.132813	-52.480579
172.265625	-51.956192
258.398438	-54.861485
344.531250	-58.138088
430.664063	-53.061653
516.796875	-51.820469
602.929688	-51.525505
689.062500	-58.840237
775.195313	-60.675182
861.328125	-61.790455
947.460938	-62.099056
1033.593750	-55.130878
1119.726563	-48.601738
1205.859375	-49.873970
1291.992188	-53.511490
1378.125000	-54.574581
1464.257813	-57.261818
1550.390625	-58.812397
1636.523438	-61.189651
1722.656250	-64.248817
1808.789063	-62.238766
1894.921875	-54.686329
1981.054688	-48.542412
2067.187500	-49.995682
2153.320313	-51.738956
2239.453125	-55.267227
2325.585938	-61.939495
2411.718750	-64.836464
2497.851563	-66.569588
2583.984375	-66.604744
2670.117188	-63.475529
2756.250000	-67.785782
2842.382813	-56.224197
2928.515625	-54.138641
3014.648438	-61.429394
3100.781250	-62.968349
3186.914063	-59.569550
3273.046875	-57.245022
3359.179688	-58.676727
3445.312500	-61.897629
3531.445313	-62.561790
3617.578125	-62.576851
3703.710938	-61.415791
3789.843750	-53.796703
3875.976563	-51.743710
3962.109375	-57.735176
4048.242188	-52.975407
4134.375000	-55.121281
4220.507813	-51.482933
4306.640625	-48.815079
4392.773438	-54.200401
4478.906250	-51.813660
4565.039063	-48.696236
4651.171875	-53.185169
4737.304688	-55.709938
4823.437500	-50.168182
4909.570313	-50.691830
4995.703125	-59.299511
5081.835938	-62.921551
5167.968750	-68.546692
5254.101563	-69.209686
5340.234375	-71.036568
5426.367188	-66.141594
5512.500000	-63.508961
5598.632813	-61.610889
5684.765625	-61.161240
5770.898438	-64.867180
5857.031250	-68.761108
5943.164063	-66.879036
6029.296875	-67.378593
6115.429688	-67.872688
6201.562500	-61.815891
6287.695313	-59.625931
6373.828125	-64.141289
6459.960938	-68.998077
6546.093750	-67.305588
6632.226563	-69.325211
6718.359375	-72.482254
6804.492188	-72.863594
6890.625000	-75.006104
6976.757813	-76.265350
7062.890625	-78.691376
7149.023438	-74.463013
7235.156250	-67.472588
7321.289063	-64.403793
7407.421875	-66.268669
7493.554688	-70.672966
7579.687500	-72.684982
7665.820313	-72.390381
7751.953125	-66.644997
7838.085938	-66.406044
7924.218750	-69.139633
8010.351563	-69.051247
8096.484375	-64.274513
8182.617188	-61.769295
8268.750000	-64.854637
8354.882813	-72.452942
8441.015625	-72.895264
8527.148438	-71.343918
8613.281250	-71.252678
8699.414063	-72.532387
8785.546875	-76.066139
8871.679688	-80.072342
8957.812500	-88.143105
9043.945313	-83.555077
9130.078125	-81.935875
9216.210938	-83.399811
9302.343750	-84.207176
9388.476563	-86.993271
9474.609375	-84.455048
9560.742188	-81.545174
9646.875000	-84.676987
9733.007813	-83.173233
9819.140625	-81.521820
9905.273438	-83.279701
9991.406250	-81.022789
10077.539063	-76.881905
10163.671875	-77.428970
10249.804688	-82.832703
10335.937500	-87.748260
10422.070313	-91.161476
10508.203125	-93.684959
10594.335938	-90.929604
10680.468750	-90.996155
10766.601563	-92.934357
10852.734375	-96.111359
10938.867188	-89.547829
11025.000000	-91.179070
11111.132813	-92.169907
11197.265625	-87.087212
11283.398438	-84.973099
11369.531250	-89.207237
11455.664063	-89.824883
11541.796875	-89.472473
11627.929688	-92.783791
11714.062500	-90.536232
11800.195313	-83.765755
11886.328125	-79.774277
11972.460938	-78.004150
12058.593750	-79.858856
12144.726563	-83.478012
12230.859375	-88.749107
12316.992188	-92.331131
12403.125000	-92.944580
12489.257813	-96.338570
12575.390625	-96.023109
12661.523438	-98.032646
12747.656250	-94.376671
12833.789063	-93.892212
12919.921875	-95.824730
13006.054688	-97.869064
13092.187500	-95.553123
13178.320313	-94.900581
13264.453125	-96.910629
13350.585938	-95.363220
13436.718750	-91.055031
13522.851563	-90.357445
13608.984375	-89.679466
13695.117188	-89.666725
13781.250000	-91.407478
13867.382813	-94.813110
13953.515625	-96.032448
14039.648438	-98.976234
14125.781250	-98.926201
14211.914063	-96.362213
14298.046875	-96.977158
14384.179688	-98.429298
14470.312500	-97.482376
14556.445313	-95.299980
14642.578125	-92.722908
14728.710938	-92.038307
14814.843750	-95.539604
14900.976563	-99.992943
14987.109375	-97.439621
15073.242188	-93.549370
15159.375000	-94.170097
15245.507813	-97.446213
15331.640625	-96.530159
15417.773438	-94.600555
15503.906250	-98.406944
15590.039063	-94.768707
15676.171875	-92.179176
15762.304688	-91.004593
15848.437500	-89.743484
15934.570313	-91.447388
16020.703125	-90.798210
16106.835938	-95.378532
16192.968750	-93.828392
16279.101563	-93.554802
16365.234375	-98.994339
16451.367188	-97.956596
16537.500000	-97.313629
16623.632813	-99.210609
16709.765625	-103.206535
16795.898438	-103.103058
16882.031250	-105.219757
16968.164063	-101.321922
17054.296875	-104.454727
17140.429688	-98.841064
17226.562500	-101.258507
17312.695313	-104.284401
17398.828125	-106.488800
17484.960938	-109.068222
17571.093750	-106.040016
17657.226563	-106.859001
17743.359375	-99.378113
17829.492188	-97.844872
17915.625000	-97.848091
18001.757813	-98.563141
18087.890625	-103.336411
18174.023438	-100.168076
18260.156250	-99.457718
18346.289063	-100.392746
18432.421875	-101.016609
18518.554688	-97.862656
18604.687500	-97.805916
18690.820313	-99.243652
18776.953125	-101.964592
18863.085938	-99.504524
18949.218750	-97.031197
19035.351563	-96.945450
19121.484375	-101.346123
19207.617188	-101.114281
19293.750000	-99.311424
19379.882813	-101.929367
19466.015625	-107.709785
19552.148438	-104.107025
19638.281250	-105.498856
19724.414063	-108.838196
19810.546875	-105.923485
19896.679688	-108.287086
19982.812500	-113.629501
20068.945313	-112.699265
20155.078125	-110.075813
20241.210938	-113.260368
20327.343750	-115.038490
20413.476563	-112.478012
20499.609375	-114.411713
20585.742188	-116.183571
20671.875000	-116.044456
20758.007813	-119.146675
20844.140625	-120.643738
20930.273438	-120.819183
21016.406250	-122.354286
21102.539063	-123.942719
21188.671875	-121.314262
21274.804688	-119.670364
21360.937500	-118.474640
21447.070313	-119.754379
21533.203125	-125.865540
21619.335938	-129.029037
21705.468750	-127.006676
21791.601563	-128.313446
21877.734375	-132.675201
21963.867188	-132.035065
