Frequency (Hz)	Level (dB)
86.132813	-51.613712
172.265625	-51.409454
258.398438	-53.375996
344.531250	-55.826675
430.664063	-58.500519
516.796875	-59.837517
602.929688	-59.391518
689.062500	-59.310089
775.195313	-59.974842
861.328125	-61.087563
947.460938	-62.116798
1033.593750	-59.752720
1119.726563	-54.243786
1205.859375	-50.470375
1291.992188	-51.394581
1378.125000	-53.380562
1464.257813	-55.332684
1550.390625	-58.150585
1636.523438	-63.897827
1722.656250	-74.812538
1808.789063	-63.492943
1894.921875	-64.572235
1981.054688	-72.645653
2067.187500	-65.224876
2153.320313	-58.268040
2239.453125	-58.796532
2325.585938	-60.145844
2411.718750	-62.323299
2497.851563	-63.385738
2583.984375	-61.056656
2670.117188	-58.965588
2756.250000	-58.730495
2842.382813	-59.283524
2928.515625	-58.822544
3014.648438	-60.557045
3100.781250	-63.358486
3186.914063	-64.781723
3273.046875	-71.220604
3359.179688	-68.781601
3445.312500	-67.897659
3531.445313	-66.899612
3617.578125	-61.602577
3703.710938	-59.280754
3789.843750	-60.054279
3875.976563	-62.020542
3962.109375	-63.239964
4048.242188	-60.887432
4134.375000	-53.325623
4220.507813	-52.451477
4306.640625	-53.823357
4392.773438	-55.295174
4478.906250	-56.570190
4565.039063	-60.086704
4651.171875	-69.348930
4737.304688	-53.331909
4823.437500	-46.824917
4909.570313	-47.217876
4995.703125	-53.863983
5081.835938	-61.308552
5167.968750	-66.096184
5254.101563	-65.167892
5340.234375	-63.130867
5426.367188	-62.663002
5512.500000	-64.114342
5598.632813	-68.553932
5684.765625	-72.088768
5770.898438	-73.074409
5857.031250	-72.753891
5943.164063	-72.752670
6029.296875	-68.005562
6115.429688	-64.847794
6201.562500	-62.431786
6287.695313	-61.499966
6373.828125	-62.795979
6459.960938	-65.042763
6546.093750	-65.621193
6632.226563	-66.964424
6718.359375	-71.094498
6804.492188	-73.404747
6890.625000	-67.577408
6976.757813	-64.314690
7062.890625	-65.118607
7149.023438	-68.475777
7235.156250	-73.368538
7321.289063	-71.777664
7407.421875	-71.844742
7493.554688	-72.700256
7579.687500	-68.362511
7665.820313	-65.047203
7751.953125	-64.327965
7838.085938	-67.435074
7924.218750	-73.177231
8010.351563	-76.881927
8096.484375	-75.672089
8182.617188	-73.924973
8268.750000	-73.853302
8354.882813	-74.853752
8441.015625	-78.574623
8527.148438	-82.824158
8613.281250	-85.503647
8699.414063	-82.869041
8785.546875	-79.978714
8871.679688	-79.983833
8957.812500	-76.236008
9043.945313	-73.604080
9130.078125	-73.246414
9216.210938	-75.214348
9302.343750	-79.370872
9388.476563	-76.223228
9474.609375	-71.875824
9560.742188	-71.081230
9646.875000	-72.425179
9733.007813	-76.017624
9819.140625	-73.335426
9905.273438	-67.076294
9991.406250	-62.262165
10077.539063	-58.918953
10163.671875	-58.570881
10249.804688	-61.472713
10335.937500	-66.051888
10422.070313	-69.952682
10508.203125	-73.897903
10594.335938	-77.776764
10680.468750	-80.781357
10766.601563	-85.744072
10852.734375	-85.331940
10938.867188	-82.844543
11025.000000	-82.805916
11111.132813	-82.687416
11197.265625	-81.066544
11283.398438	-80.108315
11369.531250	-81.070343
11455.664063	-84.728607
11541.796875	-86.363869
11627.929688	-84.698776
11714.062500	-82.442825
11800.195313	-80.443031
11886.328125	-79.780769
11972.460938	-79.692970
12058.593750	-80.270538
12144.726563	-81.918442
12230.859375	-84.020012
12316.992188	-87.477028
12403.125000	-90.864098
12489.257813	-89.065254
12575.390625	-87.360519
12661.523438	-87.155701
12747.656250	-89.226273
12833.789063	-93.860344
12919.921875	-95.385170
13006.054688	-90.981667
13092.187500	-88.484741
13178.320313	-88.406464
13264.453125	-91.053185
13350.585938	-96.262779
13436.718750	-99.165298
13522.851563	-98.139488
13608.984375	-95.837135
13695.117188	-93.510567
13781.250000	-90.190453
13867.382813	-86.500137
13953.515625	-84.340256
14039.648438	-83.128891
14125.781250	-83.115601
14211.914063	-85.179344
14298.046875	-88.330688
14384.179688	-87.766594
14470.312500	-88.842415
14556.445313	-94.745468
14642.578125	-97.040993
14728.710938	-96.694664
14814.843750	-96.474464
14900.976563	-97.437874
14987.109375	-92.410751
15073.242188	-90.228043
15159.375000	-93.272758
15245.507813	-97.489113
15331.640625	-96.515053
15417.773438	-96.152473
15503.906250	-98.233215
15590.039063	-97.860535
15676.171875	-91.264297
15762.304688	-87.635300
15848.437500	-88.182793
15934.570313	-91.409920
16020.703125	-90.733238
16106.835938	-90.498352
16192.968750	-94.793930
16279.101563	-105.378685
16365.234375	-101.801689
16451.367188	-100.734055
16537.500000	-92.154045
16623.632813	-86.228424
16709.765625	-83.821655
16795.898438	-83.918785
16882.031250	-85.728043
16968.164063	-87.359917
17054.296875	-87.936028
17140.429688	-90.059555
17226.562500	-93.523033
17312.695313	-94.648010
17398.828125	-96.998451
17484.960938	-99.739136
17571.093750	-96.425758
17657.226563	-95.177376
17743.359375	-98.657219
17829.492188	-98.589973
17915.625000	-98.553741
18001.757813	-103.437431
18087.890625	-100.557426
18174.023438	-97.814743
18260.156250	-98.435051
18346.289063	-99.186615
18432.421875	-96.213982
18518.554688	-96.687668
18604.687500	-99.981033
18690.820313	-103.750397
18776.953125	-102.082207
18863.085938	-97.431877
18949.218750	-99.201630
19035.351563	-108.686600
19121.484375	-101.523293
19207.617188	-98.419090
19293.750000	-98.036964
19379.882813	-98.474037
19466.015625	-98.961517
19552.148438	-101.048019
19638.281250	-105.555801
19724.414063	-108.720009
19810.546875	-108.632568
19896.679688	-107.112373
19982.812500	-105.138893
20068.945313	-102.830559
20155.078125	-104.561295
20241.210938	-111.528343
20327.343750	-110.879822
20413.476563	-111.778992
20499.609375	-113.959846
20585.742188	-114.688904
20671.875000	-116.540749
20758.007813	-118.992897
20844.140625	-119.872200
20930.273438	-118.171600
21016.406250	-116.298454
21102.539063	-114.883522
21188.671875	-115.228027
21274.804688	-118.829956
21360.937500	-128.409821
21447.070313	-125.181427
21533.203125	-122.828773
21619.335938	-125.001640
21705.468750	-129.788254
21791.601563	-132.036560
21877.734375	-135.680679
21963.867188	-138.905212
